* Measurement data measured by REW V5.20.13
* Source: Primary Sound Capture Driver, no input selected, R, volume: no control
* Format: 256k Log Swept Sine, 1 sweep at -25.0 dBFS with no timing reference
* Dated: 31/10/2023 5:48:02 PM
* REW Settings:
*  C-weighting compensation: Off
*  Target level: 75.0 dB
* Note: ; 
* Measurement: 64 Audio U6t No Apex L1
* Smoothing: 1/24 octave
* Frequency Step: 1/48 octave
* Start Frequency: 20.000 Hz
*
* Freq(Hz)	SPL(dB)	Phase(degrees)
20.000000	86.266	59.4744
20.299999	86.364	58.7303
20.600000	86.456	57.9841
20.900000	86.541	57.2425
21.200001	86.620	56.5112
21.400000	86.668	56.0356
21.799999	86.755	55.1320
22.000000	86.794	54.7151
22.400000	86.868	53.9703
22.700001	86.925	53.4902
23.000000	86.988	53.0603
23.299999	87.059	52.6501
23.600000	87.136	52.2297
24.000000	87.246	51.6143
24.299999	87.327	51.0984
24.700001	87.429	50.3467
25.000000	87.497	49.7564
25.400000	87.576	48.9698
25.799999	87.643	48.2220
26.200001	87.705	47.5348
26.500000	87.752	47.0556
26.900000	87.819	46.4424
27.200001	87.872	45.9792
27.600000	87.945	45.3328
28.000000	88.015	44.6501
28.500000	88.092	43.7857
29.000000	88.161	42.9728
29.500000	88.231	42.2290
30.000000	88.309	41.5068
30.400000	88.374	40.9050
30.700001	88.421	40.4324
31.100000	88.479	39.7861
31.500000	88.530	39.1446
32.000000	88.584	38.3840
32.500000	88.634	37.6877
33.000000	88.685	37.0500
33.500000	88.740	36.4470
34.000000	88.800	35.8414
34.500000	88.862	35.1988
35.000000	88.919	34.5138
35.500000	88.967	33.8212
36.000000	89.007	33.1683
36.500000	89.047	32.5711
37.000000	89.092	31.9987
37.500000	89.142	31.4048
38.200001	89.210	30.5047
38.700001	89.249	29.8433
39.500000	89.297	28.8491
40.000000	89.326	28.2873
40.599998	89.363	27.6552
41.200001	89.405	27.0328
41.799999	89.449	26.3986
42.500000	89.499	25.6425
43.099998	89.540	24.9849
43.700001	89.576	24.3304
44.400002	89.615	23.6035
45.000000	89.650	23.0137
45.500000	89.680	22.5170
46.200001	89.715	21.8195
46.799999	89.737	21.3030
47.500000	89.777	20.8218
48.200001	89.843	20.2629
48.700001	89.886	19.7239
49.400002	89.915	18.8954
50.000000	89.918	18.3005
50.799999	89.928	17.6825
51.500000	89.950	17.1342
52.200001	89.970	16.5439
53.000000	89.990	15.8905
53.799999	90.015	15.2441
54.500000	90.038	14.6559
55.200001	90.059	14.0663
56.000000	90.082	13.4215
57.000000	90.113	12.6610
58.000000	90.147	11.9117
59.000000	90.178	11.1771
60.000000	90.208	10.4437
60.799999	90.227	9.8518
61.500000	90.239	9.3596
62.200001	90.253	8.8907
63.000000	90.271	8.3541
64.000000	90.295	7.6759
65.000000	90.319	6.9917
66.000000	90.341	6.2938
67.000000	90.359	5.6108
68.000000	90.375	4.9592
69.000000	90.391	4.3398
70.000000	90.410	3.7345
71.000000	90.429	3.1228
72.000000	90.447	2.5097
73.000000	90.463	1.9136
74.000000	90.480	1.3278
75.000000	90.497	0.7301
76.199997	90.512	0.0283
77.500000	90.528	-0.6827
78.800003	90.545	-1.3997
80.000000	90.559	-2.0518
81.199997	90.574	-2.6887
82.500000	90.593	-3.3887
83.800003	90.612	-4.0884
85.000000	90.628	-4.7286
86.199997	90.642	-5.3441
87.500000	90.657	-5.9785
88.500000	90.668	-6.4725
90.000000	90.681	-7.2151
91.199997	90.691	-7.8171
92.500000	90.701	-8.4810
93.800003	90.714	-9.1206
95.000000	90.734	-9.6760
96.199997	90.765	-10.2465
97.500000	90.792	-10.9559
98.800003	90.792	-11.6014
100.000000	90.789	-12.0693
101.500000	90.795	-12.6254
103.000000	90.808	-13.2495
104.400002	90.816	-13.8935
106.000000	90.822	-14.5757
107.500000	90.837	-15.1807
109.000000	90.853	-15.8110
110.599998	90.864	-16.4927
112.000000	90.872	-17.0864
113.800003	90.885	-17.8627
115.000000	90.894	-18.3800
117.199997	90.911	-19.2983
118.000000	90.916	-19.6182
120.599998	90.936	-20.6045
122.000000	90.949	-21.1305
124.099998	90.968	-21.9277
125.000000	90.976	-22.2701
126.500000	90.987	-22.8403
128.000000	90.997	-23.4133
131.500000	91.021	-24.7266
132.000000	91.026	-24.9115
134.000000	91.046	-25.6493
136.000000	91.064	-26.4072
138.000000	91.074	-27.1562
140.000000	91.086	-27.8719
143.000000	91.108	-28.8993
145.000000	91.117	-29.5670
147.500000	91.116	-30.3750
150.000000	91.132	-31.2371
152.500000	91.158	-32.1859
155.000000	91.187	-33.0618
157.500000	91.210	-33.8701
160.000000	91.227	-34.6840
162.500000	91.244	-35.5148
165.000000	91.261	-36.3361
167.500000	91.276	-37.1299
170.000000	91.292	-37.9101
172.500000	91.308	-38.6823
175.000000	91.323	-39.4486
177.500000	91.337	-40.2244
180.000000	91.355	-41.0059
182.500000	91.375	-41.7781
185.000000	91.395	-42.5348
187.500000	91.411	-43.2854
190.000000	91.427	-44.0398
192.500000	91.444	-44.7944
195.000000	91.463	-45.5468
197.500000	91.479	-46.2833
200.000000	91.495	-46.9982
203.000000	91.515	-47.8444
206.000000	91.537	-48.6775
209.000000	91.559	-49.5042
212.000000	91.579	-50.3311
214.000000	91.591	-50.8891
218.000000	91.618	-52.0057
220.000000	91.632	-52.5621
224.000000	91.658	-53.6642
227.000000	91.677	-54.4731
230.000000	91.695	-55.2801
233.000000	91.714	-56.0762
236.000000	91.733	-56.8633
240.000000	91.760	-57.8947
243.000000	91.780	-58.6786
247.000000	91.805	-59.7000
250.000000	91.824	-60.4733
254.000000	91.847	-61.4819
258.000000	91.874	-62.4928
262.000000	91.896	-63.4905
265.000000	91.915	-64.2079
269.000000	91.943	-65.1888
272.000000	91.958	-65.9273
276.000000	91.976	-66.8512
280.000000	92.003	-67.7704
285.000000	92.037	-68.9949
290.000000	92.055	-70.1958
295.000000	92.076	-71.3129
300.000000	92.106	-72.3754
304.000000	92.130	-73.2366
307.000000	92.149	-73.8934
311.000000	92.173	-74.7692
315.000000	92.194	-75.6379
320.000000	92.216	-76.7109
325.000000	92.233	-77.7787
330.000000	92.245	-78.8692
335.000000	92.258	-79.9913
340.000000	92.278	-81.1072
345.000000	92.305	-82.1349
350.000000	92.324	-83.0513
355.000000	92.326	-83.9762
360.000000	92.331	-84.9581
365.000000	92.343	-85.8638
370.000000	92.348	-86.6938
375.000000	92.361	-87.5060
382.000000	92.396	-88.5142
387.000000	92.433	-89.2661
395.000000	92.510	-90.5692
400.000000	92.558	-91.4856
406.000000	92.603	-92.6555
412.000000	92.637	-93.8427
418.000000	92.659	-95.0010
425.000000	92.677	-96.3203
431.000000	92.687	-97.4250
437.000000	92.694	-98.4941
444.000000	92.701	-99.7092
450.000000	92.706	-100.7268
455.000000	92.708	-101.5568
462.000000	92.709	-102.6969
468.000000	92.708	-103.6509
475.000000	92.706	-104.7405
482.000000	92.700	-105.8079
487.000000	92.695	-106.5528
494.000000	92.687	-107.5710
500.000000	92.678	-108.4255
508.000000	92.665	-109.5425
515.000000	92.651	-110.4949
522.000000	92.635	-111.4240
530.000000	92.617	-112.4601
538.000000	92.596	-113.4684
545.000000	92.575	-114.3250
552.000000	92.554	-115.1565
560.000000	92.527	-116.0800
570.000000	92.491	-117.1960
580.000000	92.453	-118.2648
590.000000	92.412	-119.2881
600.000000	92.369	-120.2599
608.000000	92.334	-121.0051
615.000000	92.301	-121.6350
622.000000	92.268	-122.2424
630.000000	92.229	-122.9099
640.000000	92.179	-123.7029
650.000000	92.128	-124.4510
660.000000	92.076	-125.1556
670.000000	92.024	-125.8132
680.000000	91.971	-126.4287
690.000000	91.919	-127.0035
700.000000	91.867	-127.5374
710.000000	91.815	-128.0267
720.000000	91.763	-128.4725
730.000000	91.711	-128.8748
740.000000	91.661	-129.2392
750.000000	91.611	-129.5678
762.000000	91.555	-129.9146
775.000000	91.497	-130.2329
788.000000	91.443	-130.4865
800.000000	91.397	-130.6718
812.000000	91.355	-130.8188
825.000000	91.313	-130.9338
838.000000	91.276	-131.0048
850.000000	91.246	-131.0280
862.000000	91.220	-131.0117
875.000000	91.198	-130.9577
885.000000	91.186	-130.8909
900.000000	91.176	-130.7567
912.000000	91.175	-130.6289
925.000000	91.180	-130.4708
938.000000	91.193	-130.2982
950.000000	91.212	-130.1351
962.000000	91.236	-129.9705
975.000000	91.267	-129.7943
988.000000	91.305	-129.6263
1000.000000	91.346	-129.4794
1015.000000	91.402	-129.3053
1030.000000	91.466	-129.1483
1044.000000	91.529	-129.0241
1060.000000	91.607	-128.9072
1075.000000	91.684	-128.8246
1090.000000	91.766	-128.7690
1106.000000	91.856	-128.7388
1120.000000	91.937	-128.7413
1138.000000	92.044	-128.7902
1150.000000	92.116	-128.8533
1172.000000	92.246	-129.0345
1180.000000	92.292	-129.1174
1206.000000	92.438	-129.4218
1220.000000	92.513	-129.5981
1241.000000	92.622	-129.8782
1250.000000	92.667	-130.0029
1265.000000	92.741	-130.2137
1280.000000	92.813	-130.4261
1315.000000	92.974	-130.9246
1320.000000	92.997	-130.9952
1340.000000	93.085	-131.2738
1360.000000	93.171	-131.5432
1380.000000	93.256	-131.8002
1400.000000	93.341	-132.0460
1430.000000	93.466	-132.3899
1450.000000	93.551	-132.6006
1475.000000	93.658	-132.8479
1500.000000	93.768	-133.0823
1525.000000	93.882	-133.3073
1550.000000	94.000	-133.5266
1575.000000	94.122	-133.7479
1600.000000	94.249	-133.9764
1625.000000	94.381	-134.2172
1650.000000	94.517	-134.4790
1675.000000	94.657	-134.7676
1700.000000	94.802	-135.0900
1725.000000	94.952	-135.4531
1750.000000	95.105	-135.8575
1775.000000	95.260	-136.3080
1800.000000	95.417	-136.8115
1825.000000	95.575	-137.3713
1850.000000	95.732	-137.9915
1875.000000	95.888	-138.6774
1900.000000	96.042	-139.4292
1925.000000	96.192	-140.2454
1950.000000	96.336	-141.1243
1975.000000	96.475	-142.0632
2000.000000	96.607	-143.0584
2030.000000	96.754	-144.3206
2060.000000	96.887	-145.6460
2090.000000	97.005	-147.0216
2120.000000	97.107	-148.4357
2140.000000	97.166	-149.3911
2180.000000	97.262	-151.3148
2200.000000	97.299	-152.2759
2240.000000	97.352	-154.1743
2270.000000	97.375	-155.5642
2300.000000	97.385	-156.9156
2330.000000	97.384	-158.2180
2360.000000	97.372	-159.4637
2400.000000	97.342	-161.0333
2430.000000	97.312	-162.1364
2470.000000	97.264	-163.5074
2500.000000	97.225	-164.4636
2540.000000	97.172	-165.6461
2580.000000	97.119	-166.7377
2620.000000	97.069	-167.7505
2650.000000	97.034	-168.4642
2690.000000	96.991	-169.3715
2720.000000	96.961	-170.0246
2760.000000	96.925	-170.8652
2800.000000	96.891	-171.6824
2850.000000	96.851	-172.6732
2900.000000	96.811	-173.6249
2950.000000	96.769	-174.5292
3000.000000	96.725	-175.3619
3040.000000	96.689	-175.9647
3070.000000	96.664	-176.3761
3110.000000	96.632	-176.8668
3150.000000	96.605	-177.2949
3200.000000	96.582	-177.7537
3250.000000	96.571	-178.1410
3300.000000	96.576	-178.4788
3350.000000	96.598	-178.7875
3400.000000	96.635	-179.0803
3450.000000	96.689	-179.3755
3500.000000	96.760	-179.6887
3550.000000	96.849	179.9653
3600.000000	96.955	179.5672
3650.000000	97.078	179.1014
3700.000000	97.218	178.5511
3750.000000	97.374	177.8969
3820.000000	97.617	176.7757
3870.000000	97.807	175.7972
3950.000000	98.134	173.8572
4000.000000	98.348	172.3784
4060.000000	98.606	170.2971
4120.000000	98.856	167.8581
4180.000000	99.088	165.0506
4250.000000	99.322	161.3213
4310.000000	99.479	157.7759
4370.000000	99.586	153.9600
4440.000000	99.644	149.2407
4500.000000	99.632	145.0328
4550.000000	99.578	141.4487
4620.000000	99.438	136.3423
4680.000000	99.257	131.8862
4750.000000	98.966	126.5783
4820.000000	98.564	121.1841
4870.000000	98.191	117.3852
4940.000000	97.528	112.4686
5000.000000	96.838	109.0063
5080.000000	95.805	105.9670
5150.000000	94.891	104.8713
5220.000000	94.053	104.9561
5300.000000	93.246	105.9219
5380.000000	92.591	107.2213
5450.000000	92.100	108.5394
5520.000000	91.703	110.1403
5600.000000	91.440	111.8430
5700.000000	91.340	111.5851
5800.000000	90.774	108.6066
5900.000000	89.688	109.4935
6000.000000	88.938	113.1805
6080.000000	88.575	116.0988
6150.000000	88.335	118.4624
6220.000000	88.140	120.7328
6300.000000	87.962	123.2802
6400.000000	87.805	126.4297
6500.000000	87.719	129.5388
6600.000000	87.704	132.5743
6700.000000	87.761	135.4908
6800.000000	87.884	138.2379
6900.000000	88.070	140.7633
7000.000000	88.314	143.0127
7100.000000	88.608	144.9269
7200.000000	88.945	146.4566
7300.000000	89.322	147.5396
7400.000000	89.721	148.0507
7500.000000	90.112	147.9385
7620.000000	90.535	147.0389
7750.000000	90.894	145.2390
7880.000000	91.104	142.8553
8000.000000	91.145	140.5240
8120.000000	91.050	138.4360
8250.000000	90.825	136.7216
8380.000000	90.508	135.7278
8500.000000	90.163	135.5355
8620.000000	89.799	136.0731
8750.000000	89.415	137.4320
8850.000000	89.146	138.9535
9000.000000	88.809	141.8616
9120.000000	88.604	144.6141
9250.000000	88.457	147.9186
9380.000000	88.395	151.4919
9500.000000	88.428	154.9198
9620.000000	88.551	158.3098
9750.000000	88.776	161.8527
9880.000000	89.102	165.1623
10000.000000	89.492	167.8787
10150.000000	90.089	170.6006
10300.000000	90.784	172.3016
10440.000000	91.479	172.7126
10600.000000	92.255	171.5844
10750.000000	92.883	168.9280
10900.000000	93.327	164.8347
11060.000000	93.492	159.3746
11200.000000	93.318	154.5141
11380.000000	92.680	149.6926
11500.000000	92.070	147.9971
11720.000000	90.800	148.4890
11800.000000	90.350	149.7487
12060.000000	89.151	156.7866
12200.000000	88.738	161.7516
12410.000000	88.459	169.6836
12500.000000	88.460	173.0038
12650.000000	88.600	178.0880
12800.000000	88.866	-177.7276
13150.000000	89.555	-172.7310
13200.000000	89.615	-172.5434
13400.000000	89.665	-172.5642
13600.000000	89.382	-172.7913
13800.000000	88.822	-172.0345
14000.000000	88.112	-169.7084
14300.000000	87.072	-163.6109
14500.000000	86.493	-158.8223
14750.000000	85.820	-152.1589
15000.000000	85.340	-144.7088
15250.000000	85.109	-137.7947
15500.000000	84.992	-132.4247
15750.000000	84.709	-128.6264
16000.000000	84.003	-123.4174
16250.000000	83.398	-112.6573
16500.000000	84.112	-99.6643
16750.000000	85.924	-92.4360
17000.000000	87.772	-94.5535
17250.000000	88.910	-105.8718
17500.000000	88.824	-122.5579
17750.000000	87.424	-137.2012
18000.000000	85.141	-144.9651
18250.000000	82.610	-146.4404
18500.000000	80.289	-144.1268
18750.000000	78.381	-140.0339
19000.000000	76.945	-135.9313
19250.000000	75.887	-133.1844
19500.000000	75.028	-132.0951
19750.000000	74.320	-132.1901
