* Measurement data measured by REW V5.20.13
* Source: Primary Sound Capture Driver, no input selected, R, volume: no control
* Format: 256k Log Swept Sine, 1 sweep at -25.0 dBFS with no timing reference
* Dated: 31/10/2023 5:50:33 PM
* REW Settings:
*  C-weighting compensation: Off
*  Target level: 75.0 dB
* Note: ; 
* Measurement: 64 Audio U6t M20 R1
* Smoothing: 1/24 octave
* Frequency Step: 1/48 octave
* Start Frequency: 20.000 Hz
*
* Freq(Hz)	SPL(dB)	Phase(degrees)
20.000000	103.288	4.1080
20.299999	103.288	3.3401
20.600000	103.289	2.5637
20.900000	103.289	1.7795
21.200001	103.286	0.9974
21.400000	103.283	0.4838
21.799999	103.275	-0.5204
22.000000	103.271	-1.0114
22.400000	103.264	-1.9794
22.700001	103.259	-2.7034
23.000000	103.254	-3.4304
23.299999	103.247	-4.1564
23.600000	103.237	-4.8729
24.000000	103.221	-5.8013
24.299999	103.207	-6.4733
24.700001	103.190	-7.3433
25.000000	103.178	-7.9861
25.400000	103.161	-8.8398
25.799999	103.141	-9.6875
26.200001	103.117	-10.5139
26.500000	103.097	-11.1099
26.900000	103.070	-11.8691
27.200001	103.051	-12.4181
27.600000	103.029	-13.1390
28.000000	103.008	-13.8663
28.500000	102.981	-14.7949
29.000000	102.947	-15.7257
29.500000	102.908	-16.6283
30.000000	102.868	-17.4967
30.400000	102.837	-18.1856
30.700001	102.814	-18.7100
31.100000	102.780	-19.4188
31.500000	102.739	-20.1194
32.000000	102.683	-20.9395
32.500000	102.629	-21.6832
33.000000	102.586	-22.4077
33.500000	102.549	-23.1848
34.000000	102.504	-24.0152
34.500000	102.448	-24.8158
35.000000	102.389	-25.5223
35.500000	102.340	-26.1661
36.000000	102.303	-26.8394
36.500000	102.266	-27.5812
37.000000	102.218	-28.3379
37.500000	102.162	-29.0348
38.200001	102.089	-29.9019
38.700001	102.044	-30.5094
39.500000	101.971	-31.5090
40.000000	101.921	-32.1160
40.599998	101.863	-32.8223
41.200001	101.804	-33.5331
41.799999	101.740	-34.2381
42.500000	101.663	-35.0131
43.099998	101.601	-35.6518
43.700001	101.542	-36.3029
44.400002	101.472	-37.0742
45.000000	101.411	-37.7286
45.500000	101.359	-38.2694
46.200001	101.282	-38.9965
46.799999	101.217	-39.5508
47.500000	101.154	-40.1521
48.200001	101.101	-40.8323
48.700001	101.056	-41.3755
49.400002	100.973	-42.0923
50.000000	100.898	-42.5919
50.799999	100.810	-43.1849
51.500000	100.740	-43.7380
52.200001	100.665	-44.3013
53.000000	100.579	-44.9235
53.799999	100.493	-45.5345
54.500000	100.418	-46.0374
55.200001	100.349	-46.5063
56.000000	100.279	-47.0488
57.000000	100.195	-47.7520
58.000000	100.116	-48.4543
59.000000	100.038	-49.1913
60.000000	99.954	-49.9536
60.799999	99.880	-50.5527
61.500000	99.812	-51.0595
62.200001	99.743	-51.5461
63.000000	99.663	-52.0800
64.000000	99.564	-52.7179
65.000000	99.466	-53.3214
66.000000	99.371	-53.9001
67.000000	99.276	-54.4547
68.000000	99.180	-54.9786
69.000000	99.086	-55.4612
70.000000	98.996	-55.8917
71.000000	98.916	-56.2977
72.000000	98.847	-56.7198
73.000000	98.785	-57.1791
74.000000	98.726	-57.6749
75.000000	98.667	-58.2233
76.199997	98.585	-58.9255
77.500000	98.484	-59.6219
78.800003	98.383	-60.2870
80.000000	98.288	-60.9011
81.199997	98.193	-61.5047
82.500000	98.089	-62.1476
83.800003	97.985	-62.7485
85.000000	97.892	-63.2582
86.199997	97.803	-63.7506
87.500000	97.707	-64.2694
88.500000	97.634	-64.6616
90.000000	97.524	-65.2381
91.199997	97.438	-65.6860
92.500000	97.346	-66.1678
93.800003	97.255	-66.6455
95.000000	97.173	-67.0751
96.199997	97.091	-67.4911
97.500000	97.006	-67.9194
98.800003	96.924	-68.3527
100.000000	96.848	-68.7591
101.500000	96.751	-69.2504
103.000000	96.654	-69.7138
104.400002	96.566	-70.1260
106.000000	96.469	-70.6035
107.500000	96.377	-71.0554
109.000000	96.285	-71.4967
110.599998	96.191	-71.9569
112.000000	96.110	-72.3513
113.800003	96.008	-72.8433
115.000000	95.941	-73.1589
117.199997	95.818	-73.7156
118.000000	95.773	-73.9142
120.599998	95.628	-74.5546
122.000000	95.552	-74.8958
124.099998	95.440	-75.4025
125.000000	95.392	-75.6113
126.500000	95.312	-75.9436
128.000000	95.232	-76.2651
131.500000	95.041	-76.9990
132.000000	95.014	-77.0976
134.000000	94.905	-77.4658
136.000000	94.796	-77.7975
138.000000	94.687	-78.0986
140.000000	94.576	-78.3572
143.000000	94.407	-78.6132
145.000000	94.294	-78.6676
147.500000	94.156	-78.5759
150.000000	94.034	-78.2341
152.500000	93.961	-77.6196
155.000000	93.966	-76.8970
157.500000	94.056	-76.3987
160.000000	94.197	-76.4323
162.500000	94.341	-77.0621
165.000000	94.445	-78.1556
167.500000	94.488	-79.4967
170.000000	94.474	-80.8650
172.500000	94.416	-82.1063
175.000000	94.334	-83.1672
177.500000	94.240	-84.0685
180.000000	94.146	-84.8439
182.500000	94.054	-85.5186
185.000000	93.966	-86.1093
187.500000	93.880	-86.6443
190.000000	93.798	-87.1495
192.500000	93.721	-87.6332
195.000000	93.647	-88.0797
197.500000	93.574	-88.4681
200.000000	93.504	-88.8121
203.000000	93.425	-89.1943
206.000000	93.351	-89.5341
209.000000	93.287	-89.8164
212.000000	93.238	-90.0438
214.000000	93.214	-90.1813
218.000000	93.191	-90.5140
220.000000	93.190	-90.7516
224.000000	93.193	-91.4091
227.000000	93.185	-92.0277
230.000000	93.163	-92.6874
233.000000	93.130	-93.3295
236.000000	93.091	-93.9246
240.000000	93.034	-94.6549
243.000000	92.990	-95.1705
247.000000	92.932	-95.8152
250.000000	92.890	-96.2681
254.000000	92.838	-96.8494
258.000000	92.789	-97.4202
262.000000	92.742	-97.9776
265.000000	92.709	-98.3774
269.000000	92.666	-98.8802
272.000000	92.636	-99.2418
276.000000	92.600	-99.7159
280.000000	92.566	-100.1826
285.000000	92.529	-100.7460
290.000000	92.501	-101.2822
295.000000	92.481	-101.8323
300.000000	92.468	-102.4172
304.000000	92.461	-102.9115
307.000000	92.454	-103.2912
311.000000	92.442	-103.7968
315.000000	92.426	-104.2954
320.000000	92.405	-104.9019
325.000000	92.386	-105.4730
330.000000	92.373	-106.0065
335.000000	92.367	-106.5237
340.000000	92.370	-107.0590
345.000000	92.379	-107.6472
350.000000	92.389	-108.2919
355.000000	92.395	-108.9678
360.000000	92.394	-109.6497
365.000000	92.387	-110.3265
370.000000	92.376	-110.9891
375.000000	92.363	-111.6324
382.000000	92.345	-112.5013
387.000000	92.333	-113.1020
395.000000	92.317	-114.0400
400.000000	92.307	-114.6072
406.000000	92.295	-115.2696
412.000000	92.283	-115.9238
418.000000	92.270	-116.5771
425.000000	92.257	-117.3273
431.000000	92.246	-117.9591
437.000000	92.236	-118.5831
444.000000	92.225	-119.3046
450.000000	92.215	-119.9170
455.000000	92.206	-120.4219
462.000000	92.192	-121.1171
468.000000	92.180	-121.6969
475.000000	92.166	-122.3552
482.000000	92.151	-123.0021
487.000000	92.139	-123.4600
494.000000	92.124	-124.0941
500.000000	92.111	-124.6309
508.000000	92.093	-125.3393
515.000000	92.077	-125.9424
522.000000	92.058	-126.5273
530.000000	92.037	-127.1830
538.000000	92.014	-127.8171
545.000000	91.992	-128.3514
552.000000	91.969	-128.8751
560.000000	91.943	-129.4626
570.000000	91.910	-130.1730
580.000000	91.876	-130.8509
590.000000	91.841	-131.4978
600.000000	91.804	-132.1146
608.000000	91.774	-132.5813
615.000000	91.747	-132.9702
622.000000	91.719	-133.3428
630.000000	91.687	-133.7522
640.000000	91.648	-134.2422
650.000000	91.610	-134.7058
660.000000	91.570	-135.1322
670.000000	91.530	-135.5189
680.000000	91.491	-135.8807
690.000000	91.450	-136.2123
700.000000	91.409	-136.5076
710.000000	91.371	-136.7689
720.000000	91.334	-137.0082
730.000000	91.298	-137.2253
740.000000	91.264	-137.4132
750.000000	91.231	-137.5709
762.000000	91.193	-137.7164
775.000000	91.154	-137.8324
788.000000	91.117	-137.9099
800.000000	91.088	-137.9399
812.000000	91.062	-137.9437
825.000000	91.039	-137.9175
838.000000	91.021	-137.8536
850.000000	91.009	-137.7678
862.000000	91.001	-137.6607
875.000000	90.998	-137.5258
885.000000	90.999	-137.4105
900.000000	91.006	-137.2128
912.000000	91.017	-137.0400
925.000000	91.035	-136.8495
938.000000	91.059	-136.6545
950.000000	91.086	-136.4755
962.000000	91.118	-136.3022
975.000000	91.157	-136.1148
988.000000	91.201	-135.9326
1000.000000	91.246	-135.7773
1015.000000	91.306	-135.6035
1030.000000	91.371	-135.4556
1044.000000	91.435	-135.3356
1060.000000	91.511	-135.2198
1075.000000	91.584	-135.1396
1090.000000	91.658	-135.0824
1106.000000	91.738	-135.0428
1120.000000	91.810	-135.0345
1138.000000	91.904	-135.0637
1150.000000	91.966	-135.0989
1172.000000	92.078	-135.1785
1180.000000	92.118	-135.2120
1206.000000	92.242	-135.3433
1220.000000	92.307	-135.4251
1241.000000	92.402	-135.5490
1250.000000	92.443	-135.6014
1265.000000	92.509	-135.6920
1280.000000	92.576	-135.7865
1315.000000	92.730	-135.9871
1320.000000	92.752	-136.0114
1340.000000	92.839	-136.1023
1360.000000	92.924	-136.1843
1380.000000	93.012	-136.2537
1400.000000	93.100	-136.3119
1430.000000	93.236	-136.3841
1450.000000	93.330	-136.4167
1475.000000	93.451	-136.4513
1500.000000	93.578	-136.4869
1525.000000	93.711	-136.5203
1550.000000	93.852	-136.5569
1575.000000	94.001	-136.6199
1600.000000	94.156	-136.7120
1625.000000	94.315	-136.8146
1650.000000	94.479	-136.9446
1675.000000	94.650	-137.1327
1700.000000	94.828	-137.3765
1725.000000	95.011	-137.6675
1750.000000	95.197	-138.0095
1775.000000	95.389	-138.4226
1800.000000	95.583	-138.9194
1825.000000	95.779	-139.4909
1850.000000	95.973	-140.1324
1875.000000	96.163	-140.8558
1900.000000	96.351	-141.6641
1925.000000	96.536	-142.5545
1950.000000	96.717	-143.5323
1975.000000	96.890	-144.5953
2000.000000	97.054	-145.7280
2030.000000	97.237	-147.1696
2060.000000	97.402	-148.6983
2090.000000	97.552	-150.3046
2120.000000	97.683	-151.9694
2140.000000	97.758	-153.0949
2180.000000	97.882	-155.3625
2200.000000	97.932	-156.5093
2240.000000	98.012	-158.8042
2270.000000	98.051	-160.4828
2300.000000	98.072	-162.1099
2330.000000	98.078	-163.6870
2360.000000	98.073	-165.2147
2400.000000	98.052	-167.1688
2430.000000	98.028	-168.5582
2470.000000	97.986	-170.3060
2500.000000	97.951	-171.5518
2540.000000	97.900	-173.1333
2580.000000	97.849	-174.6302
2620.000000	97.799	-176.0616
2650.000000	97.762	-177.1033
2690.000000	97.716	-178.4688
2720.000000	97.683	-179.4847
2760.000000	97.641	179.1645
2800.000000	97.597	177.8077
2850.000000	97.537	176.0940
2900.000000	97.467	174.3682
2950.000000	97.382	172.6415
3000.000000	97.280	170.9520
3040.000000	97.184	169.6443
3070.000000	97.106	168.6938
3110.000000	96.993	167.4808
3150.000000	96.871	166.3431
3200.000000	96.708	165.0376
3250.000000	96.536	163.8766
3300.000000	96.358	162.8638
3350.000000	96.179	161.9980
3400.000000	96.000	161.2884
3450.000000	95.826	160.7257
3500.000000	95.661	160.2993
3550.000000	95.509	160.0057
3600.000000	95.373	159.8228
3650.000000	95.256	159.7278
3700.000000	95.159	159.6985
3750.000000	95.081	159.7069
3820.000000	95.007	159.7498
3870.000000	94.977	159.7838
3950.000000	94.972	159.7936
4000.000000	94.998	159.7412
4060.000000	95.058	159.5762
4120.000000	95.147	159.2590
4180.000000	95.260	158.7501
4250.000000	95.414	157.8696
4310.000000	95.558	156.8351
4370.000000	95.707	155.5220
4440.000000	95.880	153.6181
4500.000000	96.025	151.6405
4550.000000	96.140	149.7209
4620.000000	96.283	146.5475
4680.000000	96.372	143.2888
4750.000000	96.398	138.7570
4820.000000	96.272	133.4959
4870.000000	96.047	129.5307
4940.000000	95.516	124.3519
5000.000000	94.885	120.9149
5080.000000	93.913	118.4308
5150.000000	93.088	118.1230
5220.000000	92.392	118.9502
5300.000000	91.777	120.5376
5380.000000	91.334	122.3514
5450.000000	91.068	123.8192
5520.000000	90.895	124.9368
5600.000000	90.777	125.3499
5700.000000	90.489	123.8897
5800.000000	89.704	123.5684
5900.000000	88.972	126.7660
6000.000000	88.611	130.5710
6080.000000	88.457	133.2805
6150.000000	88.368	135.4828
6220.000000	88.311	137.6108
6300.000000	88.284	140.0031
6400.000000	88.307	142.9541
6500.000000	88.396	145.8600
6600.000000	88.557	148.6896
6700.000000	88.792	151.3831
6800.000000	89.101	153.8658
6900.000000	89.480	156.0488
7000.000000	89.916	157.8965
7100.000000	90.413	159.4386
7200.000000	90.980	160.5617
7300.000000	91.606	161.0229
7400.000000	92.258	160.6911
7500.000000	92.907	159.4967
7620.000000	93.632	156.8597
7750.000000	94.276	152.6052
7880.000000	94.690	147.2756
8000.000000	94.824	142.0328
8120.000000	94.727	137.1821
8250.000000	94.421	132.9708
8380.000000	93.997	130.1248
8500.000000	93.577	128.6761
8620.000000	93.184	128.1773
8750.000000	92.830	128.4396
8850.000000	92.623	129.0241
9000.000000	92.433	130.2331
9120.000000	92.385	131.2641
9250.000000	92.433	132.2123
9380.000000	92.581	132.7481
9500.000000	92.788	132.6124
9620.000000	93.028	131.6344
9750.000000	93.270	129.4583
9880.000000	93.417	126.0875
10000.000000	93.401	122.0990
10150.000000	93.102	116.5690
10300.000000	92.468	111.4555
10440.000000	91.618	107.9308
10600.000000	90.452	105.9538
10750.000000	89.284	106.1497
10900.000000	88.139	108.0950
11060.000000	87.004	111.7468
11200.000000	86.110	116.0095
11380.000000	85.115	122.6340
11500.000000	84.547	127.6371
11720.000000	83.706	137.9260
11800.000000	83.474	142.0023
12060.000000	83.043	155.9714
12200.000000	83.021	163.6381
12410.000000	83.261	174.8735
12500.000000	83.459	179.4532
12650.000000	83.898	-173.4369
12800.000000	84.447	-167.2046
13150.000000	85.865	-157.0665
13200.000000	86.051	-156.1411
13400.000000	86.681	-153.5383
13600.000000	87.072	-152.1926
13800.000000	87.188	-151.2944
14000.000000	87.047	-149.9891
14300.000000	86.516	-145.7138
14500.000000	86.142	-141.1515
14750.000000	85.762	-134.1912
15000.000000	85.530	-125.8512
15250.000000	85.582	-116.4188
15500.000000	86.050	-106.4148
15750.000000	87.084	-96.9126
16000.000000	88.665	-89.8263
16250.000000	90.573	-86.7178
16500.000000	92.651	-88.2773
16750.000000	94.670	-96.2794
17000.000000	96.008	-112.9021
17250.000000	96.015	-135.0144
17500.000000	94.643	-154.1958
17750.000000	92.445	-165.9839
18000.000000	90.089	-171.8819
18250.000000	87.973	-174.7554
18500.000000	86.206	-176.7467
18750.000000	84.740	-179.2849
19000.000000	83.464	176.6879
19250.000000	82.223	170.6970
19500.000000	80.865	163.1106
19750.000000	79.411	155.4338
