* Measurement data measured by REW V5.20.9
* Source: Microphone (Realtek(R) Audio), MICROPHONE (Master Volume), R, volume: 0.250
* Format: 256k Log Swept Sine, 1 sweep at 0.0 dBFS with no timing reference
* Dated: 10/11/2022 4:35:57 PM
* REW Settings:
*  C-weighting compensation: Off
*  Target level: 75.0 dB
* Note: ; 
* Measurement: Fourte L
* Smoothing: 1/24 octave
* Frequency Step: 1/48 octave
* Start Frequency: 20.000 Hz
*
* Freq(Hz)	SPL(dB)	Phase(degrees)
20.000000	97.806	5.6104
20.299999	97.798	5.0221
20.600000	97.788	4.4388
20.900000	97.775	3.8672
21.200001	97.758	3.3164
21.400000	97.747	2.9653
21.799999	97.723	2.3018
22.000000	97.712	1.9869
22.400000	97.692	1.3795
22.700001	97.679	0.9310
23.000000	97.667	0.4796
23.299999	97.654	0.0253
23.600000	97.639	-0.4258
24.000000	97.616	-1.0087
24.299999	97.597	-1.4222
24.700001	97.573	-1.9399
25.000000	97.557	-2.3120
25.400000	97.540	-2.8069
25.799999	97.526	-3.3250
26.200001	97.510	-3.8761
26.500000	97.494	-4.3036
26.900000	97.467	-4.8727
27.200001	97.443	-5.2836
27.600000	97.409	-5.7994
28.000000	97.375	-6.2843
28.500000	97.335	-6.8767
29.000000	97.294	-7.4772
29.500000	97.247	-8.0649
30.000000	97.196	-8.5911
30.400000	97.157	-8.9549
30.700001	97.133	-9.2055
31.100000	97.107	-9.5400
31.500000	97.086	-9.9004
32.000000	97.060	-10.3961
32.500000	97.028	-10.9095
33.000000	96.990	-11.3984
33.500000	96.952	-11.8527
34.000000	96.914	-12.2864
34.500000	96.877	-12.7096
35.000000	96.838	-13.1191
35.500000	96.801	-13.5140
36.000000	96.764	-13.9044
36.500000	96.727	-14.3013
37.000000	96.689	-14.7045
37.500000	96.647	-15.1039
38.200001	96.585	-15.6375
38.700001	96.540	-15.9932
39.500000	96.471	-16.5243
40.000000	96.431	-16.8485
40.599998	96.385	-17.2476
41.200001	96.338	-17.6562
41.799999	96.288	-18.0531
42.500000	96.229	-18.4768
43.099998	96.182	-18.8099
43.700001	96.139	-19.1406
44.400002	96.091	-19.5488
45.000000	96.047	-19.9120
45.500000	96.007	-20.2036
46.200001	95.950	-20.5759
46.799999	95.903	-20.8700
47.500000	95.851	-21.2078
48.200001	95.800	-21.5471
48.700001	95.764	-21.7866
49.400002	95.712	-22.1121
50.000000	95.669	-22.3816
50.799999	95.611	-22.7321
51.500000	95.561	-23.0331
52.200001	95.510	-23.3235
53.000000	95.451	-23.6381
53.799999	95.393	-23.9405
54.500000	95.343	-24.1990
55.200001	95.294	-24.4532
56.000000	95.237	-24.7412
57.000000	95.166	-25.0874
58.000000	95.098	-25.4149
59.000000	95.030	-25.7435
60.000000	94.962	-26.0562
60.799999	94.907	-26.2870
61.500000	94.861	-26.4828
62.200001	94.814	-26.6697
63.000000	94.761	-26.8688
64.000000	94.697	-27.1121
65.000000	94.634	-27.3542
66.000000	94.572	-27.5892
67.000000	94.510	-27.8206
68.000000	94.451	-28.0447
69.000000	94.393	-28.2744
70.000000	94.334	-28.5032
71.000000	94.277	-28.7208
72.000000	94.220	-28.9368
73.000000	94.162	-29.1339
74.000000	94.106	-29.3077
75.000000	94.051	-29.4741
76.199997	93.984	-29.6594
77.500000	93.913	-29.8325
78.800003	93.845	-29.9911
80.000000	93.787	-30.1402
81.199997	93.730	-30.3138
82.500000	93.668	-30.5104
83.800003	93.604	-30.7074
85.000000	93.544	-30.8719
86.199997	93.485	-31.0139
87.500000	93.424	-31.1458
88.500000	93.380	-31.2460
90.000000	93.316	-31.4062
91.199997	93.264	-31.5332
92.500000	93.208	-31.6431
93.800003	93.155	-31.7417
95.000000	93.108	-31.8361
96.199997	93.060	-31.9322
97.500000	93.008	-32.0408
98.800003	92.956	-32.1522
100.000000	92.908	-32.2520
101.500000	92.851	-32.3625
103.000000	92.797	-32.4643
104.400002	92.748	-32.5562
106.000000	92.693	-32.6456
107.500000	92.642	-32.7265
109.000000	92.592	-32.8003
110.599998	92.543	-32.8805
112.000000	92.501	-32.9703
113.800003	92.444	-33.0879
115.000000	92.406	-33.1487
117.199997	92.337	-33.2311
118.000000	92.314	-33.2604
120.599998	92.239	-33.3714
122.000000	92.200	-33.4333
124.099998	92.145	-33.5262
125.000000	92.122	-33.5665
126.500000	92.084	-33.6273
128.000000	92.047	-33.6807
131.500000	91.960	-33.8019
132.000000	91.948	-33.8192
134.000000	91.902	-33.8890
136.000000	91.858	-33.9578
138.000000	91.816	-34.0177
140.000000	91.774	-34.0698
143.000000	91.711	-34.1569
145.000000	91.669	-34.2285
147.500000	91.622	-34.3096
150.000000	91.578	-34.3864
152.500000	91.534	-34.4518
155.000000	91.490	-34.5203
157.500000	91.447	-34.5968
160.000000	91.408	-34.6691
162.500000	91.371	-34.7404
165.000000	91.335	-34.8087
167.500000	91.299	-34.8801
170.000000	91.263	-34.9595
172.500000	91.226	-35.0409
175.000000	91.192	-35.1190
177.500000	91.162	-35.1901
180.000000	91.133	-35.2563
182.500000	91.103	-35.3246
185.000000	91.073	-35.3972
187.500000	91.044	-35.4803
190.000000	91.017	-35.5686
192.500000	90.991	-35.6523
195.000000	90.964	-35.7211
197.500000	90.937	-35.7869
200.000000	90.911	-35.8647
203.000000	90.881	-35.9650
206.000000	90.852	-36.0450
209.000000	90.823	-36.1004
212.000000	90.791	-36.1302
214.000000	90.769	-36.1320
218.000000	90.731	-36.1076
220.000000	90.720	-36.0807
224.000000	90.720	-35.9987
227.000000	90.730	-35.9706
230.000000	90.747	-36.0425
233.000000	90.764	-36.2109
236.000000	90.772	-36.4334
240.000000	90.768	-36.7652
243.000000	90.760	-37.0053
247.000000	90.748	-37.2800
250.000000	90.738	-37.4706
254.000000	90.725	-37.7237
258.000000	90.712	-37.9612
262.000000	90.700	-38.1875
265.000000	90.691	-38.3505
269.000000	90.682	-38.5598
272.000000	90.677	-38.7201
276.000000	90.671	-38.9460
280.000000	90.666	-39.1864
285.000000	90.659	-39.4894
290.000000	90.652	-39.7855
295.000000	90.647	-40.0850
300.000000	90.643	-40.3851
304.000000	90.642	-40.6252
307.000000	90.641	-40.8090
311.000000	90.641	-41.0577
315.000000	90.642	-41.3102
320.000000	90.644	-41.6334
325.000000	90.646	-41.9624
330.000000	90.648	-42.2980
335.000000	90.651	-42.6383
340.000000	90.656	-42.9865
345.000000	90.663	-43.3358
350.000000	90.669	-43.6741
355.000000	90.676	-44.0209
360.000000	90.686	-44.3909
365.000000	90.696	-44.7744
370.000000	90.705	-45.1592
375.000000	90.716	-45.5424
382.000000	90.732	-46.0945
387.000000	90.744	-46.4926
395.000000	90.763	-47.1342
400.000000	90.775	-47.5457
406.000000	90.789	-48.0488
412.000000	90.804	-48.5517
418.000000	90.816	-49.0638
425.000000	90.830	-49.6702
431.000000	90.844	-50.1868
437.000000	90.859	-50.6973
444.000000	90.877	-51.3069
450.000000	90.894	-51.8375
455.000000	90.909	-52.2780
462.000000	90.934	-52.9062
468.000000	90.956	-53.4514
475.000000	90.982	-54.0931
482.000000	91.010	-54.7504
487.000000	91.030	-55.2300
494.000000	91.059	-55.9064
500.000000	91.085	-56.4901
508.000000	91.122	-57.2896
515.000000	91.158	-58.0163
522.000000	91.195	-58.7706
530.000000	91.239	-59.6753
538.000000	91.283	-60.6278
545.000000	91.320	-61.4971
552.000000	91.355	-62.3925
560.000000	91.392	-63.4490
570.000000	91.436	-64.8189
580.000000	91.474	-66.2451
590.000000	91.505	-67.7318
600.000000	91.529	-69.2668
608.000000	91.542	-70.5266
615.000000	91.548	-71.6496
622.000000	91.549	-72.7899
630.000000	91.543	-74.1114
640.000000	91.524	-75.7874
650.000000	91.493	-77.4821
660.000000	91.449	-79.1877
670.000000	91.392	-80.8962
680.000000	91.321	-82.6019
690.000000	91.236	-84.2932
700.000000	91.135	-85.9504
710.000000	91.019	-87.5565
720.000000	90.888	-89.1045
730.000000	90.743	-90.5817
740.000000	90.584	-91.9608
750.000000	90.416	-93.2278
762.000000	90.208	-94.5861
775.000000	89.983	-95.8738
788.000000	89.765	-97.0060
800.000000	89.570	-97.9497
812.000000	89.379	-98.8146
825.000000	89.175	-99.6740
838.000000	88.970	-100.4581
850.000000	88.780	-101.1127
862.000000	88.590	-101.6852
875.000000	88.386	-102.2053
885.000000	88.231	-102.5356
900.000000	88.004	-102.9222
912.000000	87.827	-103.1393
925.000000	87.642	-103.2919
938.000000	87.464	-103.3697
950.000000	87.306	-103.3690
962.000000	87.155	-103.3064
975.000000	87.000	-103.1799
988.000000	86.854	-102.9993
1000.000000	86.726	-102.7839
1015.000000	86.575	-102.4379
1030.000000	86.435	-101.9888
1044.000000	86.318	-101.4681
1060.000000	86.206	-100.7734
1075.000000	86.126	-100.0586
1090.000000	86.073	-99.3271
1106.000000	86.043	-98.5802
1120.000000	86.034	-97.9802
1138.000000	86.039	-97.2909
1150.000000	86.052	-96.8752
1172.000000	86.088	-96.1876
1180.000000	86.104	-95.9602
1206.000000	86.164	-95.2850
1220.000000	86.202	-94.9467
1241.000000	86.266	-94.4720
1250.000000	86.296	-94.2775
1265.000000	86.351	-93.9569
1280.000000	86.413	-93.6385
1315.000000	86.584	-92.9880
1320.000000	86.611	-92.9084
1340.000000	86.725	-92.6125
1360.000000	86.844	-92.3510
1380.000000	86.970	-92.1425
1400.000000	87.103	-91.9863
1430.000000	87.314	-91.8132
1450.000000	87.463	-91.7568
1475.000000	87.656	-91.7711
1500.000000	87.856	-91.8635
1525.000000	88.060	-92.0254
1550.000000	88.268	-92.2653
1575.000000	88.483	-92.6021
1600.000000	88.696	-93.0148
1625.000000	88.906	-93.4838
1650.000000	89.111	-94.0243
1675.000000	89.313	-94.6304
1700.000000	89.514	-95.2439
1725.000000	89.718	-95.8528
1750.000000	89.933	-96.4872
1775.000000	90.157	-97.2102
1800.000000	90.384	-98.0607
1825.000000	90.607	-99.0343
1850.000000	90.823	-100.1085
1875.000000	91.029	-101.2623
1900.000000	91.227	-102.4869
1925.000000	91.416	-103.7712
1950.000000	91.597	-105.1049
1975.000000	91.768	-106.4960
2000.000000	91.927	-107.9248
2030.000000	92.102	-109.6669
2060.000000	92.261	-111.4579
2090.000000	92.404	-113.2887
2120.000000	92.530	-115.1194
2140.000000	92.604	-116.3379
2180.000000	92.731	-118.7310
2200.000000	92.788	-119.8854
2240.000000	92.892	-122.1407
2270.000000	92.964	-123.8354
2300.000000	93.029	-125.5451
2330.000000	93.083	-127.2610
2360.000000	93.122	-128.9666
2400.000000	93.151	-131.1723
2430.000000	93.158	-132.7213
2470.000000	93.160	-134.6276
2500.000000	93.167	-135.9731
2540.000000	93.185	-137.7417
2580.000000	93.202	-139.5388
2620.000000	93.206	-141.3433
2650.000000	93.199	-142.6637
2690.000000	93.182	-144.3029
2720.000000	93.174	-145.4522
2760.000000	93.177	-146.9823
2800.000000	93.190	-148.5929
2850.000000	93.199	-150.7749
2900.000000	93.178	-153.1006
2950.000000	93.117	-155.4673
3000.000000	93.008	-157.8185
3040.000000	92.878	-159.5534
3070.000000	92.757	-160.7134
3110.000000	92.580	-162.0044
3150.000000	92.407	-162.9725
3200.000000	92.223	-163.8927
3250.000000	92.073	-164.7062
3300.000000	91.938	-165.5015
3350.000000	91.806	-166.2526
3400.000000	91.677	-166.9323
3450.000000	91.551	-167.5378
3500.000000	91.431	-168.0841
3550.000000	91.314	-168.6085
3600.000000	91.197	-169.1371
3650.000000	91.067	-169.6758
3700.000000	90.908	-170.1586
3750.000000	90.714	-170.4173
3820.000000	90.416	-170.0833
3870.000000	90.236	-169.3022
3950.000000	90.064	-167.6463
4000.000000	90.005	-166.5739
4060.000000	89.968	-165.1382
4120.000000	90.000	-163.5673
4180.000000	90.103	-162.1470
4250.000000	90.256	-160.7705
4310.000000	90.403	-159.5865
4370.000000	90.598	-158.3148
4440.000000	90.914	-156.9669
4500.000000	91.249	-156.1387
4550.000000	91.562	-155.7438
4620.000000	92.036	-155.7044
4680.000000	92.468	-156.2297
4750.000000	92.976	-157.6538
4820.000000	93.429	-160.0594
4870.000000	93.679	-162.3083
4940.000000	93.883	-165.8625
5000.000000	93.921	-168.8660
5080.000000	93.824	-172.2598
5150.000000	93.669	-174.4858
5220.000000	93.504	-176.1218
5300.000000	93.331	-177.5105
5380.000000	93.183	-178.6044
5450.000000	93.069	-179.4243
5520.000000	92.966	179.8404
5600.000000	92.851	179.0940
5700.000000	92.705	178.3075
5800.000000	92.553	177.7168
5900.000000	92.397	177.3616
6000.000000	92.245	177.2540
6080.000000	92.127	177.3605
6150.000000	92.030	177.5914
6220.000000	91.942	177.9450
6300.000000	91.855	178.4936
6400.000000	91.770	179.3834
6500.000000	91.717	-179.5081
6600.000000	91.703	-178.2084
6700.000000	91.734	-176.7458
6800.000000	91.818	-175.1626
6900.000000	91.962	-173.4991
7000.000000	92.172	-171.8225
7100.000000	92.460	-170.2351
7200.000000	92.825	-168.8183
7300.000000	93.273	-167.6700
7400.000000	93.811	-166.9151
7500.000000	94.444	-166.7375
7620.000000	95.323	-167.6731
7750.000000	96.361	-170.8865
7880.000000	97.304	-177.1057
8000.000000	97.890	174.5028
8120.000000	98.026	164.4137
8250.000000	97.575	153.5615
8380.000000	96.588	144.9999
8500.000000	95.397	140.0806
8620.000000	94.134	137.9243
8750.000000	92.846	138.0607
8850.000000	91.976	139.4067
9000.000000	90.907	142.6176
9120.000000	90.242	145.6920
9250.000000	89.666	149.2195
9380.000000	89.202	152.9003
9500.000000	88.868	156.4548
9620.000000	88.631	160.0023
9750.000000	88.443	163.7319
9880.000000	88.320	167.5919
10000.000000	88.295	171.2368
10150.000000	88.389	175.6967
10300.000000	88.620	179.9077
10440.000000	88.968	-176.5148
10600.000000	89.530	-173.0972
10750.000000	90.203	-170.9426
10900.000000	90.962	-170.1908
11060.000000	91.812	-171.0815
11200.000000	92.554	-173.5372
11380.000000	93.362	-179.5596
11500.000000	93.686	174.6396
11720.000000	93.577	162.0616
11800.000000	93.293	157.6448
12060.000000	91.671	147.0172
12200.000000	90.545	144.1890
12410.000000	88.820	143.1675
12500.000000	88.114	143.6454
12650.000000	87.012	145.3410
12800.000000	86.011	147.8956
13150.000000	84.068	156.0571
13200.000000	83.834	157.3878
13400.000000	82.998	162.9121
13600.000000	82.292	168.6200
13800.000000	81.676	174.5281
14000.000000	81.142	-179.2356
14300.000000	80.556	-169.1840
14500.000000	80.351	-162.2568
14750.000000	80.309	-153.7394
15000.000000	80.495	-145.6530
15250.000000	80.906	-138.2614
15500.000000	81.533	-132.0250
15750.000000	82.278	-127.7784
16000.000000	82.816	-125.4749
16250.000000	83.079	-120.9489
16500.000000	84.396	-111.0648
16750.000000	87.549	-103.4866
17000.000000	91.213	-107.1882
17250.000000	94.183	-125.5493
17500.000000	95.709	-157.0566
17750.000000	95.496	165.1033
18000.000000	93.521	129.4498
18250.000000	89.900	104.2061
18500.000000	85.078	92.4337
18750.000000	79.770	90.8639
19000.000000	74.619	95.2972
19250.000000	69.933	103.1971
19500.000000	65.701	113.2258
19750.000000	61.885	123.6391
