* Measurement data measured by REW V5.20.13
* Source: Primary Sound Capture Driver, no input selected, R, volume: no control
* Format: 256k Log Swept Sine, 1 sweep at -25.0 dBFS with no timing reference
* Dated: 31/10/2023 5:52:39 PM
* REW Settings:
*  C-weighting compensation: Off
*  Target level: 75.0 dB
* Note: ; 
* Measurement: 64 Audio U6t No Apex R1
* Smoothing: 1/24 octave
* Frequency Step: 1/48 octave
* Start Frequency: 20.000 Hz
*
* Freq(Hz)	SPL(dB)	Phase(degrees)
20.000000	86.090	58.6738
20.299999	86.179	58.1112
20.600000	86.278	57.5191
20.900000	86.380	56.8519
21.200001	86.473	56.1130
21.400000	86.527	55.6149
21.799999	86.617	54.6794
22.000000	86.658	54.2697
22.400000	86.744	53.5768
22.700001	86.821	53.1124
23.000000	86.908	52.6212
23.299999	86.997	52.0641
23.600000	87.078	51.4507
24.000000	87.167	50.6139
24.299999	87.221	50.0447
24.700001	87.288	49.4144
25.000000	87.344	49.0147
25.400000	87.434	48.4908
25.799999	87.533	47.8749
26.200001	87.623	47.1428
26.500000	87.678	46.5583
26.900000	87.734	45.8057
27.200001	87.769	45.2981
27.600000	87.815	44.7004
28.000000	87.870	44.1459
28.500000	87.948	43.4279
29.000000	88.027	42.6453
29.500000	88.103	41.8297
30.000000	88.176	41.0180
30.400000	88.235	40.3728
30.700001	88.279	39.8862
31.100000	88.338	39.2329
31.500000	88.394	38.5824
32.000000	88.462	37.7932
32.500000	88.528	37.0420
33.000000	88.596	36.3147
33.500000	88.664	35.5877
34.000000	88.727	34.8538
34.500000	88.780	34.1345
35.000000	88.825	33.4574
35.500000	88.866	32.8325
36.000000	88.907	32.2441
36.500000	88.948	31.6702
37.000000	88.988	31.0977
37.500000	89.029	30.5221
38.200001	89.088	29.6935
38.700001	89.130	29.0674
39.500000	89.189	28.0147
40.000000	89.218	27.3712
40.599998	89.251	26.6606
41.200001	89.291	26.0018
41.799999	89.334	25.3420
42.500000	89.378	24.5819
43.099998	89.411	24.0184
43.700001	89.453	23.5204
44.400002	89.512	22.8733
45.000000	89.550	22.2244
45.500000	89.567	21.6877
46.200001	89.581	20.9813
46.799999	89.583	20.3707
47.500000	89.561	19.7571
48.200001	89.548	19.4529
48.700001	89.580	19.3144
49.400002	89.673	18.8206
50.000000	89.744	18.0271
50.799999	89.781	16.8910
51.500000	89.799	16.1097
52.200001	89.831	15.4019
53.000000	89.866	14.5876
53.799999	89.894	13.8674
54.500000	89.922	13.2989
55.200001	89.947	12.7405
56.000000	89.971	12.1271
57.000000	89.996	11.3829
58.000000	90.013	10.6346
59.000000	90.029	9.9027
60.000000	90.051	9.1564
60.799999	90.069	8.5450
61.500000	90.087	8.0149
62.200001	90.108	7.4891
63.000000	90.132	6.8875
64.000000	90.157	6.1600
65.000000	90.182	5.4914
66.000000	90.208	4.8391
67.000000	90.230	4.1717
68.000000	90.247	3.5125
69.000000	90.262	2.8600
70.000000	90.276	2.2058
71.000000	90.289	1.5578
72.000000	90.304	0.9316
73.000000	90.322	0.3288
74.000000	90.344	-0.2875
75.000000	90.360	-0.9255
76.199997	90.371	-1.6504
77.500000	90.383	-2.3799
78.800003	90.398	-3.1373
80.000000	90.408	-3.8572
81.199997	90.418	-4.5444
82.500000	90.433	-5.2678
83.800003	90.451	-5.9754
85.000000	90.465	-6.6364
86.199997	90.473	-7.2875
87.500000	90.479	-7.9694
88.500000	90.483	-8.4934
90.000000	90.493	-9.2786
91.199997	90.504	-9.8864
92.500000	90.521	-10.5157
93.800003	90.535	-11.1068
95.000000	90.542	-11.5776
96.199997	90.552	-11.9913
97.500000	90.572	-12.5342
98.800003	90.574	-13.2464
100.000000	90.565	-13.8740
101.500000	90.568	-14.6556
103.000000	90.576	-15.4656
104.400002	90.586	-16.1396
106.000000	90.600	-16.8466
107.500000	90.610	-17.4863
109.000000	90.617	-18.1209
110.599998	90.627	-18.8225
112.000000	90.639	-19.4634
113.800003	90.654	-20.3050
115.000000	90.659	-20.8362
117.199997	90.671	-21.7268
118.000000	90.676	-22.0610
120.599998	90.686	-23.1720
122.000000	90.691	-23.7476
124.099998	90.702	-24.6055
125.000000	90.705	-24.9683
126.500000	90.709	-25.5720
128.000000	90.711	-26.1761
131.500000	90.714	-27.5699
132.000000	90.715	-27.7677
134.000000	90.725	-28.5605
136.000000	90.733	-29.3636
138.000000	90.736	-30.1481
140.000000	90.734	-30.9075
143.000000	90.732	-32.0283
145.000000	90.731	-32.7615
147.500000	90.726	-33.6521
150.000000	90.714	-34.5387
152.500000	90.696	-35.4484
155.000000	90.677	-36.3544
157.500000	90.652	-37.2108
160.000000	90.611	-37.9891
162.500000	90.554	-38.6468
165.000000	90.493	-39.1176
167.500000	90.445	-39.3286
170.000000	90.436	-39.2815
172.500000	90.488	-39.1992
175.000000	90.591	-39.3201
177.500000	90.719	-39.7659
180.000000	90.839	-40.5417
182.500000	90.933	-41.5201
185.000000	91.006	-42.5574
187.500000	91.061	-43.5835
190.000000	91.098	-44.5869
192.500000	91.121	-45.5853
195.000000	91.134	-46.5661
197.500000	91.143	-47.4618
200.000000	91.152	-48.2761
203.000000	91.160	-49.2351
206.000000	91.163	-50.1825
209.000000	91.168	-51.0687
212.000000	91.173	-51.8820
214.000000	91.176	-52.4041
218.000000	91.182	-53.4430
220.000000	91.187	-53.9346
224.000000	91.211	-54.8417
227.000000	91.241	-55.5090
230.000000	91.279	-56.2130
233.000000	91.322	-56.9740
236.000000	91.366	-57.7947
240.000000	91.417	-58.9517
243.000000	91.448	-59.8337
247.000000	91.480	-61.0012
250.000000	91.501	-61.8670
254.000000	91.523	-62.9907
258.000000	91.541	-64.0817
262.000000	91.558	-65.1407
265.000000	91.571	-65.9199
269.000000	91.586	-66.9476
272.000000	91.597	-67.7064
276.000000	91.611	-68.7033
280.000000	91.623	-69.6870
285.000000	91.638	-70.8885
290.000000	91.652	-72.0598
295.000000	91.665	-73.2112
300.000000	91.676	-74.3376
304.000000	91.684	-75.2139
307.000000	91.688	-75.8521
311.000000	91.694	-76.6740
315.000000	91.701	-77.4587
320.000000	91.713	-78.3865
325.000000	91.733	-79.2656
330.000000	91.764	-80.1282
335.000000	91.806	-81.0345
340.000000	91.851	-82.0188
345.000000	91.891	-83.0629
350.000000	91.920	-84.1323
355.000000	91.940	-85.1961
360.000000	91.952	-86.2172
365.000000	91.960	-87.1766
370.000000	91.967	-88.0601
375.000000	91.979	-88.8638
382.000000	92.018	-89.9301
387.000000	92.062	-90.7365
395.000000	92.136	-92.2053
400.000000	92.173	-93.2109
406.000000	92.203	-94.4413
412.000000	92.220	-95.6465
418.000000	92.231	-96.8066
425.000000	92.239	-98.1064
431.000000	92.243	-99.1793
437.000000	92.245	-100.2228
444.000000	92.245	-101.4045
450.000000	92.245	-102.3849
455.000000	92.244	-103.1841
462.000000	92.241	-104.2836
468.000000	92.239	-105.2053
475.000000	92.235	-106.2603
482.000000	92.229	-107.2974
487.000000	92.224	-108.0258
494.000000	92.216	-109.0294
500.000000	92.208	-109.8715
508.000000	92.195	-110.9659
515.000000	92.181	-111.9012
522.000000	92.166	-112.8175
530.000000	92.146	-113.8378
538.000000	92.125	-114.8306
545.000000	92.105	-115.6764
552.000000	92.083	-116.4965
560.000000	92.056	-117.4033
570.000000	92.021	-118.4968
580.000000	91.984	-119.5511
590.000000	91.945	-120.5636
600.000000	91.904	-121.5260
608.000000	91.869	-122.2606
615.000000	91.838	-122.8833
622.000000	91.806	-123.4875
630.000000	91.768	-124.1509
640.000000	91.721	-124.9398
650.000000	91.672	-125.6869
660.000000	91.623	-126.3894
670.000000	91.573	-127.0502
680.000000	91.522	-127.6727
690.000000	91.471	-128.2510
700.000000	91.421	-128.7888
710.000000	91.370	-129.2897
720.000000	91.321	-129.7450
730.000000	91.272	-130.1582
740.000000	91.225	-130.5375
750.000000	91.178	-130.8881
762.000000	91.124	-131.2626
775.000000	91.069	-131.6080
788.000000	91.016	-131.8926
800.000000	90.971	-132.1094
812.000000	90.929	-132.2820
825.000000	90.889	-132.4281
838.000000	90.853	-132.5355
850.000000	90.824	-132.5905
862.000000	90.801	-132.6137
875.000000	90.780	-132.6061
885.000000	90.768	-132.5771
900.000000	90.759	-132.5112
912.000000	90.757	-132.4414
925.000000	90.761	-132.3462
938.000000	90.772	-132.2397
950.000000	90.787	-132.1345
962.000000	90.806	-132.0240
975.000000	90.834	-131.9056
988.000000	90.867	-131.7934
1000.000000	90.902	-131.6947
1015.000000	90.951	-131.5836
1030.000000	91.007	-131.4916
1044.000000	91.063	-131.4214
1060.000000	91.131	-131.3662
1075.000000	91.199	-131.3435
1090.000000	91.269	-131.3475
1106.000000	91.346	-131.3840
1120.000000	91.414	-131.4402
1138.000000	91.502	-131.5400
1150.000000	91.560	-131.6235
1172.000000	91.667	-131.8125
1180.000000	91.705	-131.8905
1206.000000	91.826	-132.1670
1220.000000	91.888	-132.3307
1241.000000	91.979	-132.5907
1250.000000	92.018	-132.7048
1265.000000	92.080	-132.8939
1280.000000	92.140	-133.0806
1315.000000	92.275	-133.5028
1320.000000	92.294	-133.5604
1340.000000	92.367	-133.7867
1360.000000	92.441	-134.0003
1380.000000	92.513	-134.1951
1400.000000	92.586	-134.3765
1430.000000	92.697	-134.6182
1450.000000	92.773	-134.7621
1475.000000	92.870	-134.9255
1500.000000	92.970	-135.0703
1525.000000	93.075	-135.2053
1550.000000	93.185	-135.3350
1575.000000	93.300	-135.4642
1600.000000	93.422	-135.6003
1625.000000	93.550	-135.7496
1650.000000	93.683	-135.9173
1675.000000	93.821	-136.1086
1700.000000	93.965	-136.3347
1725.000000	94.115	-136.6017
1750.000000	94.269	-136.9194
1775.000000	94.428	-137.2906
1800.000000	94.588	-137.7156
1825.000000	94.750	-138.2043
1850.000000	94.912	-138.7640
1875.000000	95.074	-139.3922
1900.000000	95.234	-140.0942
1925.000000	95.391	-140.8717
1950.000000	95.543	-141.7167
1975.000000	95.690	-142.6276
2000.000000	95.829	-143.6083
2030.000000	95.983	-144.8674
2060.000000	96.123	-146.1996
2090.000000	96.247	-147.5978
2120.000000	96.353	-149.0426
2140.000000	96.413	-150.0231
2180.000000	96.510	-152.0181
2200.000000	96.546	-153.0174
2240.000000	96.595	-154.9850
2270.000000	96.612	-156.4271
2300.000000	96.614	-157.8235
2330.000000	96.603	-159.1637
2360.000000	96.580	-160.4457
2400.000000	96.534	-162.0449
2430.000000	96.490	-163.1544
2470.000000	96.423	-164.5225
2500.000000	96.369	-165.4619
2540.000000	96.296	-166.6058
2580.000000	96.223	-167.6459
2620.000000	96.153	-168.5848
2650.000000	96.104	-169.2360
2690.000000	96.044	-170.0528
2720.000000	96.003	-170.6284
2760.000000	95.954	-171.3627
2800.000000	95.909	-172.0743
2850.000000	95.856	-172.9295
2900.000000	95.805	-173.7605
2950.000000	95.753	-174.5566
3000.000000	95.700	-175.2938
3040.000000	95.656	-175.8303
3070.000000	95.623	-176.1909
3110.000000	95.579	-176.6113
3150.000000	95.539	-176.9667
3200.000000	95.496	-177.3209
3250.000000	95.465	-177.5908
3300.000000	95.450	-177.8008
3350.000000	95.449	-177.9608
3400.000000	95.464	-178.0907
3450.000000	95.495	-178.2090
3500.000000	95.541	-178.3269
3550.000000	95.605	-178.4624
3600.000000	95.686	-178.6278
3650.000000	95.783	-178.8323
3700.000000	95.897	-179.0952
3750.000000	96.027	-179.4295
3820.000000	96.236	179.9566
3870.000000	96.404	179.3837
3950.000000	96.702	178.1879
4000.000000	96.904	177.2275
4060.000000	97.159	175.8206
4120.000000	97.420	174.1052
4180.000000	97.679	172.0471
4250.000000	97.968	169.1900
4310.000000	98.192	166.3448
4370.000000	98.384	163.1452
4440.000000	98.554	159.0131
4500.000000	98.646	155.1663
4550.000000	98.683	151.7650
4620.000000	98.667	146.7242
4680.000000	98.580	142.1346
4750.000000	98.372	136.4597
4820.000000	98.003	130.5828
4870.000000	97.616	126.4985
4940.000000	96.892	121.5046
5000.000000	96.136	118.4130
5080.000000	95.059	116.4090
5150.000000	94.189	116.3884
5220.000000	93.469	117.3389
5300.000000	92.832	118.8914
5380.000000	92.359	120.5559
5450.000000	92.062	121.8713
5520.000000	91.857	122.8326
5600.000000	91.706	123.0205
5700.000000	91.363	121.1980
5800.000000	90.493	120.6954
5900.000000	89.687	123.9207
6000.000000	89.273	127.7446
6080.000000	89.081	130.4412
6150.000000	88.958	132.6384
6220.000000	88.869	134.7750
6300.000000	88.808	137.1886
6400.000000	88.797	140.1813
6500.000000	88.860	143.1288
6600.000000	89.000	145.9773
6700.000000	89.219	148.6613
6800.000000	89.515	151.0984
6900.000000	89.879	153.1959
7000.000000	90.298	154.9210
7100.000000	90.771	156.2916
7200.000000	91.307	157.2006
7300.000000	91.890	157.4526
7400.000000	92.491	156.9409
7500.000000	93.081	155.6102
7620.000000	93.726	152.9058
7750.000000	94.276	148.7372
7880.000000	94.598	143.7163
8000.000000	94.666	138.9482
8120.000000	94.533	134.6611
8250.000000	94.223	131.0367
8380.000000	93.823	128.6722
8500.000000	93.442	127.5521
8620.000000	93.099	127.2638
8750.000000	92.804	127.6188
8850.000000	92.646	128.1838
9000.000000	92.525	129.2029
9120.000000	92.530	129.9178
9250.000000	92.625	130.3376
9380.000000	92.793	130.1415
9500.000000	92.985	129.1495
9620.000000	93.155	127.1909
9750.000000	93.238	124.0069
9880.000000	93.142	120.0466
10000.000000	92.853	116.2463
10150.000000	92.235	112.1630
10300.000000	91.412	109.4784
10440.000000	90.554	108.3948
10600.000000	89.561	108.6366
10750.000000	88.668	109.9513
10900.000000	87.815	112.0544
11060.000000	86.934	115.1285
11200.000000	86.188	118.6011
11380.000000	85.289	124.1887
11500.000000	84.743	128.5863
11720.000000	83.892	138.0125
11800.000000	83.647	141.8564
12060.000000	83.164	155.3032
12200.000000	83.114	162.7988
12410.000000	83.312	173.8745
12500.000000	83.494	178.4105
12650.000000	83.913	-174.5281
12800.000000	84.445	-168.3163
13150.000000	85.835	-158.1735
13200.000000	86.019	-157.2481
13400.000000	86.640	-154.6555
13600.000000	87.023	-153.3428
13800.000000	87.130	-152.4995
14000.000000	86.975	-151.2467
14300.000000	86.422	-147.0264
14500.000000	86.029	-142.4850
14750.000000	85.621	-135.5166
15000.000000	85.358	-127.1070
15250.000000	85.377	-117.5069
15500.000000	85.826	-107.2278
15750.000000	86.877	-97.4349
16000.000000	88.496	-90.2507
16250.000000	90.411	-87.2915
16500.000000	92.459	-89.0219
16750.000000	94.439	-97.0948
17000.000000	95.731	-113.7156
17250.000000	95.681	-135.6566
17500.000000	94.241	-154.3490
17750.000000	91.981	-165.3170
18000.000000	89.588	-170.1018
18250.000000	87.494	-171.6949
18500.000000	85.837	-172.4794
18750.000000	84.570	-174.1604
19000.000000	83.555	-177.9713
19250.000000	82.574	175.4756
19500.000000	81.415	166.7083
19750.000000	80.068	157.6787
