* Measurement data measured by REW V5.20.13
* Source: Primary Sound Capture Driver, no input selected, R, volume: no control
* Format: 256k Log Swept Sine, 1 sweep at 0.0 dBFS with no timing reference
* Dated: 01/11/2023 12:25:58 PM
* REW Settings:
*  C-weighting compensation: Off
*  Target level: 75.0 dB
* Note: ; 
* Measurement: 64Audio Volur M15 L
* Smoothing: 1/24 octave
* Frequency Step: 1/48 octave
* Start Frequency: 20.000 Hz
*
* Freq(Hz)	SPL(dB)	Phase(degrees)
20.000000	103.551	-1.7919
20.299999	103.546	-2.5889
20.600000	103.540	-3.3715
20.900000	103.533	-4.1376
21.200001	103.525	-4.8867
21.400000	103.519	-5.3770
21.799999	103.506	-6.3363
22.000000	103.500	-6.8063
22.400000	103.488	-7.7294
22.700001	103.478	-8.4093
23.000000	103.469	-9.0805
23.299999	103.460	-9.7441
23.600000	103.451	-10.4008
24.000000	103.438	-11.2662
24.299999	103.428	-11.9089
24.700001	103.415	-12.7596
25.000000	103.403	-13.3936
25.400000	103.387	-14.2318
25.799999	103.368	-15.0575
26.200001	103.348	-15.8663
26.500000	103.333	-16.4619
26.900000	103.313	-17.2457
27.200001	103.298	-17.8303
27.600000	103.278	-18.6105
28.000000	103.257	-19.3914
28.500000	103.227	-20.3596
29.000000	103.194	-21.3043
29.500000	103.160	-22.2191
30.000000	103.128	-23.1096
30.400000	103.103	-23.8125
30.700001	103.085	-24.3374
31.100000	103.061	-25.0358
31.500000	103.036	-25.7310
32.000000	103.003	-26.5873
32.500000	102.969	-27.4217
33.000000	102.935	-28.2339
33.500000	102.902	-29.0314
34.000000	102.869	-29.8212
34.500000	102.835	-30.6019
35.000000	102.800	-31.3711
35.500000	102.766	-32.1331
36.000000	102.732	-32.8971
36.500000	102.697	-33.6663
37.000000	102.658	-34.4319
37.500000	102.617	-35.1808
38.200001	102.559	-36.1940
38.700001	102.520	-36.8994
39.500000	102.459	-38.0100
40.000000	102.423	-38.6940
40.599998	102.383	-39.5109
41.200001	102.344	-40.3344
41.799999	102.302	-41.1593
42.500000	102.249	-42.0935
43.099998	102.204	-42.8618
43.700001	102.158	-43.6195
44.400002	102.100	-44.4904
45.000000	102.047	-45.2008
45.500000	102.004	-45.7733
46.200001	101.943	-46.5835
46.799999	101.884	-47.2637
47.500000	101.813	-47.9409
48.200001	101.768	-48.5461
48.700001	101.753	-49.0645
49.400002	101.728	-49.9955
50.000000	101.684	-50.8607
50.799999	101.607	-51.8889
51.500000	101.544	-52.6873
52.200001	101.485	-53.4661
53.000000	101.417	-54.3047
53.799999	101.357	-55.0914
54.500000	101.309	-55.7895
55.200001	101.258	-56.4860
56.000000	101.200	-57.2514
57.000000	101.133	-58.2269
58.000000	101.062	-59.2543
59.000000	100.985	-60.2714
60.000000	100.908	-61.2631
60.799999	100.847	-62.0334
61.500000	100.796	-62.6923
62.200001	100.746	-63.3392
63.000000	100.690	-64.0574
64.000000	100.623	-64.9297
65.000000	100.557	-65.7906
66.000000	100.492	-66.6545
67.000000	100.425	-67.5472
68.000000	100.349	-68.4307
69.000000	100.272	-69.2670
70.000000	100.199	-70.0825
71.000000	100.126	-70.8862
72.000000	100.056	-71.6614
73.000000	99.988	-72.4153
74.000000	99.921	-73.1559
75.000000	99.855	-73.8741
76.199997	99.780	-74.7054
77.500000	99.707	-75.6024
78.800003	99.637	-76.5353
80.000000	99.571	-77.4010
81.199997	99.506	-78.2682
82.500000	99.433	-79.2247
83.800003	99.354	-80.1750
85.000000	99.279	-81.0220
86.199997	99.205	-81.8425
87.500000	99.128	-82.7118
88.500000	99.071	-83.3727
90.000000	98.985	-84.3505
91.199997	98.917	-85.1100
92.500000	98.846	-85.9196
93.800003	98.776	-86.7325
95.000000	98.711	-87.4811
96.199997	98.645	-88.2202
97.500000	98.575	-89.0031
98.800003	98.506	-89.7804
100.000000	98.441	-90.4973
101.500000	98.356	-91.3595
103.000000	98.274	-92.1918
104.400002	98.197	-92.9576
106.000000	98.111	-93.8087
107.500000	98.033	-94.5830
109.000000	97.958	-95.3438
110.599998	97.881	-96.1411
112.000000	97.816	-96.8301
113.800003	97.734	-97.7170
115.000000	97.681	-98.3140
117.199997	97.581	-99.4233
118.000000	97.543	-99.8306
120.599998	97.413	-101.1331
122.000000	97.341	-101.8080
124.099998	97.230	-102.7849
125.000000	97.181	-103.1893
126.500000	97.098	-103.8395
128.000000	97.012	-104.4590
131.500000	96.803	-105.7769
132.000000	96.771	-105.9471
134.000000	96.643	-106.5668
136.000000	96.510	-107.0615
138.000000	96.375	-107.3865
140.000000	96.244	-107.4678
143.000000	96.098	-107.0236
145.000000	96.076	-106.4164
147.500000	96.178	-105.7115
150.000000	96.399	-105.7036
152.500000	96.635	-106.7260
155.000000	96.796	-108.5074
157.500000	96.858	-110.5491
160.000000	96.845	-112.5004
162.500000	96.786	-114.2316
165.000000	96.707	-115.7413
167.500000	96.621	-117.0784
170.000000	96.533	-118.2845
172.500000	96.447	-119.3920
175.000000	96.366	-120.4242
177.500000	96.288	-121.3978
180.000000	96.212	-122.3214
182.500000	96.139	-123.2051
185.000000	96.067	-124.0481
187.500000	95.997	-124.8515
190.000000	95.931	-125.6251
192.500000	95.868	-126.3768
195.000000	95.806	-127.1100
197.500000	95.746	-127.8282
200.000000	95.687	-128.5325
203.000000	95.619	-129.3583
206.000000	95.553	-130.1617
209.000000	95.489	-130.9484
212.000000	95.427	-131.7212
214.000000	95.388	-132.2273
218.000000	95.311	-133.2069
220.000000	95.274	-133.6801
224.000000	95.201	-134.6008
227.000000	95.147	-135.2717
230.000000	95.095	-135.9359
233.000000	95.043	-136.5917
236.000000	94.992	-137.2347
240.000000	94.927	-138.0669
243.000000	94.880	-138.6716
247.000000	94.821	-139.4603
250.000000	94.778	-140.0382
254.000000	94.723	-140.7905
258.000000	94.669	-141.5241
262.000000	94.618	-142.2455
265.000000	94.581	-142.7819
269.000000	94.532	-143.4868
272.000000	94.496	-144.0090
276.000000	94.447	-144.7007
280.000000	94.397	-145.3752
285.000000	94.334	-146.1873
290.000000	94.272	-146.9624
295.000000	94.211	-147.6971
300.000000	94.151	-148.3824
304.000000	94.105	-148.8913
307.000000	94.073	-149.2546
311.000000	94.034	-149.7175
315.000000	94.000	-150.1641
320.000000	93.966	-150.7185
325.000000	93.941	-151.2945
330.000000	93.919	-151.9243
335.000000	93.896	-152.5998
340.000000	93.868	-153.2909
345.000000	93.836	-153.9813
350.000000	93.799	-154.6517
355.000000	93.758	-155.2944
360.000000	93.716	-155.9101
365.000000	93.673	-156.4958
370.000000	93.628	-157.0552
375.000000	93.584	-157.5941
382.000000	93.523	-158.3054
387.000000	93.482	-158.7817
395.000000	93.422	-159.5035
400.000000	93.388	-159.9353
406.000000	93.350	-160.4436
412.000000	93.313	-160.9560
418.000000	93.275	-161.4669
425.000000	93.229	-162.0428
431.000000	93.188	-162.5212
437.000000	93.147	-162.9911
444.000000	93.100	-163.5197
450.000000	93.061	-163.9575
455.000000	93.029	-164.3043
462.000000	92.984	-164.7565
468.000000	92.946	-165.1232
475.000000	92.902	-165.5345
482.000000	92.858	-165.9293
487.000000	92.828	-166.2055
494.000000	92.787	-166.5795
500.000000	92.752	-166.8826
508.000000	92.707	-167.2654
515.000000	92.669	-167.5839
522.000000	92.631	-167.8854
530.000000	92.589	-168.2119
538.000000	92.548	-168.5220
545.000000	92.513	-168.7753
552.000000	92.479	-169.0098
560.000000	92.442	-169.2572
570.000000	92.395	-169.5422
580.000000	92.350	-169.8000
590.000000	92.308	-170.0321
600.000000	92.268	-170.2396
608.000000	92.238	-170.3905
615.000000	92.213	-170.5128
622.000000	92.188	-170.6243
630.000000	92.162	-170.7375
640.000000	92.130	-170.8569
650.000000	92.099	-170.9497
660.000000	92.070	-171.0220
670.000000	92.042	-171.0721
680.000000	92.017	-171.0992
690.000000	91.995	-171.1069
700.000000	91.976	-171.1003
710.000000	91.959	-171.0734
720.000000	91.945	-171.0302
730.000000	91.933	-170.9702
740.000000	91.923	-170.8871
750.000000	91.915	-170.7851
762.000000	91.909	-170.6364
775.000000	91.908	-170.4510
788.000000	91.912	-170.2511
800.000000	91.921	-170.0491
812.000000	91.936	-169.8204
825.000000	91.957	-169.5558
838.000000	91.984	-169.2789
850.000000	92.014	-169.0146
862.000000	92.049	-168.7407
875.000000	92.092	-168.4315
885.000000	92.130	-168.1881
900.000000	92.193	-167.8251
912.000000	92.251	-167.5364
925.000000	92.321	-167.2326
938.000000	92.396	-166.9440
950.000000	92.471	-166.6818
962.000000	92.550	-166.4301
975.000000	92.641	-166.1741
988.000000	92.737	-165.9391
1000.000000	92.830	-165.7474
1015.000000	92.953	-165.5428
1030.000000	93.081	-165.3781
1044.000000	93.204	-165.2609
1060.000000	93.349	-165.1719
1075.000000	93.487	-165.1319
1090.000000	93.625	-165.1331
1106.000000	93.775	-165.1819
1120.000000	93.906	-165.2664
1138.000000	94.073	-165.4282
1150.000000	94.184	-165.5623
1172.000000	94.386	-165.8618
1180.000000	94.458	-165.9906
1206.000000	94.686	-166.4586
1220.000000	94.806	-166.7323
1241.000000	94.982	-167.1808
1250.000000	95.055	-167.3853
1265.000000	95.174	-167.7344
1280.000000	95.291	-168.0834
1315.000000	95.555	-168.9501
1320.000000	95.592	-169.0797
1340.000000	95.736	-169.5923
1360.000000	95.876	-170.0940
1380.000000	96.011	-170.6074
1400.000000	96.144	-171.1287
1430.000000	96.338	-171.8822
1450.000000	96.465	-172.3785
1475.000000	96.623	-173.0144
1500.000000	96.780	-173.6488
1525.000000	96.935	-174.2689
1550.000000	97.090	-174.8839
1575.000000	97.248	-175.5232
1600.000000	97.404	-176.1719
1625.000000	97.558	-176.8129
1650.000000	97.712	-177.4661
1675.000000	97.866	-178.1607
1700.000000	98.023	-178.8877
1725.000000	98.179	-179.6442
1750.000000	98.334	179.5637
1775.000000	98.486	178.7310
1800.000000	98.636	177.8491
1825.000000	98.780	176.9114
1850.000000	98.917	175.9232
1875.000000	99.048	174.8890
1900.000000	99.171	173.8027
1925.000000	99.284	172.6713
1950.000000	99.389	171.5012
1975.000000	99.483	170.2790
2000.000000	99.562	169.0267
2030.000000	99.637	167.5226
2060.000000	99.690	165.9969
2090.000000	99.723	164.4570
2120.000000	99.734	162.9525
2140.000000	99.730	161.9652
2180.000000	99.696	160.0509
2200.000000	99.667	159.1458
2240.000000	99.587	157.4411
2270.000000	99.512	156.2537
2300.000000	99.426	155.1621
2330.000000	99.332	154.1650
2360.000000	99.231	153.2498
2400.000000	99.088	152.1549
2430.000000	98.976	151.4243
2470.000000	98.822	150.5543
2500.000000	98.704	149.9768
2540.000000	98.548	149.2935
2580.000000	98.392	148.7181
2620.000000	98.238	148.2457
2650.000000	98.123	147.9336
2690.000000	97.971	147.6023
2720.000000	97.857	147.4174
2760.000000	97.709	147.2237
2800.000000	97.565	147.1024
2850.000000	97.392	147.0543
2900.000000	97.223	147.1103
2950.000000	97.064	147.2872
3000.000000	96.913	147.5361
3040.000000	96.795	147.8346
3070.000000	96.709	148.1066
3110.000000	96.601	148.5073
3150.000000	96.502	148.9651
3200.000000	96.389	149.6172
3250.000000	96.287	150.3546
3300.000000	96.195	151.1698
3350.000000	96.115	152.0541
3400.000000	96.049	152.9906
3450.000000	95.996	153.9801
3500.000000	95.957	155.0172
3550.000000	95.934	156.0770
3600.000000	95.929	157.1608
3650.000000	95.940	158.2502
3700.000000	95.967	159.3297
3750.000000	96.009	160.3991
3820.000000	96.095	161.8250
3870.000000	96.176	162.7726
3950.000000	96.334	164.1419
4000.000000	96.450	164.8712
4060.000000	96.600	165.6138
4120.000000	96.762	166.1982
4180.000000	96.933	166.6088
4250.000000	97.141	166.8668
4310.000000	97.328	166.8530
4370.000000	97.520	166.5580
4440.000000	97.740	165.7584
4500.000000	97.902	164.5945
4550.000000	97.996	163.2836
4620.000000	98.030	161.0500
4680.000000	97.941	159.0205
4750.000000	97.695	156.9879
4820.000000	97.326	155.7857
4870.000000	97.025	155.5693
4940.000000	96.612	156.0940
5000.000000	96.298	157.1178
5080.000000	95.959	158.9090
5150.000000	95.723	160.6140
5220.000000	95.516	162.3588
5300.000000	95.296	164.4211
5380.000000	95.085	166.6272
5450.000000	94.908	168.7096
5520.000000	94.747	170.9197
5600.000000	94.584	173.5656
5700.000000	94.414	176.9663
5800.000000	94.274	-179.6484
5900.000000	94.147	-176.3496
6000.000000	94.010	-173.1422
6080.000000	93.875	-170.5713
6150.000000	93.729	-168.2272
6220.000000	93.561	-165.6962
6300.000000	93.351	-162.4530
6400.000000	93.099	-157.7664
6500.000000	92.910	-152.4818
6600.000000	92.815	-146.9236
6700.000000	92.801	-141.3753
6800.000000	92.845	-135.9499
6900.000000	92.929	-130.6812
7000.000000	93.035	-125.5436
7100.000000	93.169	-120.4655
7200.000000	93.342	-115.4725
7300.000000	93.557	-110.6825
7400.000000	93.807	-106.2133
7500.000000	94.078	-102.1445
7620.000000	94.411	-97.8777
7750.000000	94.755	-94.1472
7880.000000	95.031	-91.4436
8000.000000	95.169	-89.8826
8120.000000	95.127	-89.0509
8250.000000	94.811	-88.4388
8380.000000	94.191	-87.2560
8500.000000	93.384	-84.8586
8620.000000	92.436	-80.7585
8750.000000	91.374	-74.3684
8850.000000	90.603	-68.3099
9000.000000	89.587	-58.0239
9120.000000	88.895	-49.1609
9250.000000	88.249	-39.1478
9380.000000	87.695	-28.8406
9500.000000	87.258	-19.1476
9620.000000	86.885	-9.3394
9750.000000	86.542	1.3475
9880.000000	86.258	12.0356
10000.000000	86.038	21.8734
10150.000000	85.808	34.1032
10300.000000	85.618	46.2533
10440.000000	85.465	57.5508
10600.000000	85.310	70.4506
10750.000000	85.178	82.5797
10900.000000	85.055	94.8047
11060.000000	84.944	108.0065
11200.000000	84.869	119.7297
11380.000000	84.815	135.0653
11500.000000	84.814	145.4440
11720.000000	84.910	164.7128
11800.000000	84.982	171.7627
12060.000000	85.359	-165.3764
12200.000000	85.645	-153.2001
12410.000000	86.190	-135.3368
12500.000000	86.462	-127.8800
12650.000000	86.959	-115.7778
12800.000000	87.499	-104.1368
13150.000000	88.865	-79.1080
13200.000000	89.063	-75.8108
13400.000000	89.831	-63.3710
13600.000000	90.510	-52.0928
13800.000000	91.033	-41.7403
14000.000000	91.352	-31.8209
14300.000000	91.464	-16.3092
14500.000000	91.380	-4.7553
14750.000000	91.250	11.3478
15000.000000	91.231	29.0188
15250.000000	91.442	47.7884
15500.000000	92.006	66.7804
15750.000000	92.899	84.4398
16000.000000	93.883	99.7944
16250.000000	94.798	113.4588
16500.000000	95.680	126.0574
16750.000000	96.561	137.3811
17000.000000	97.381	146.9556
17250.000000	98.015	154.6444
17500.000000	98.358	160.9528
17750.000000	98.372	166.8910
18000.000000	98.107	173.4865
18250.000000	97.700	-178.8213
18500.000000	97.296	-170.7706
18750.000000	96.915	-164.1204
19000.000000	96.348	-160.0467
19250.000000	95.298	-157.5125
19500.000000	93.628	-154.0255
19750.000000	91.564	-148.5779
