* Measurement data measured by REW V5.20.13
* Source: Primary Sound Capture Driver, no input selected, R, volume: no control
* Format: 256k Log Swept Sine, 1 sweep at -25.0 dBFS with no timing reference
* Dated: 31/10/2023 5:51:24 PM
* REW Settings:
*  C-weighting compensation: Off
*  Target level: 75.0 dB
* Note: ; 
* Measurement: 64 Audio U6t MX R1
* Smoothing: 1/24 octave
* Frequency Step: 1/48 octave
* Start Frequency: 20.000 Hz
*
* Freq(Hz)	SPL(dB)	Phase(degrees)
20.000000	91.073	53.5634
20.299999	91.177	52.8381
20.600000	91.274	52.0600
20.900000	91.359	51.2513
21.200001	91.433	50.4487
21.400000	91.476	49.9375
21.799999	91.555	48.9896
22.000000	91.594	48.5545
22.400000	91.676	47.7422
22.700001	91.744	47.1519
23.000000	91.814	46.5498
23.299999	91.886	45.9270
23.600000	91.954	45.2886
24.000000	92.041	44.4331
24.299999	92.103	43.8049
24.700001	92.184	42.9917
25.000000	92.245	42.3923
25.400000	92.326	41.5902
25.799999	92.404	40.7759
26.200001	92.476	39.9614
26.500000	92.526	39.3647
26.900000	92.589	38.5994
27.200001	92.636	38.0467
27.600000	92.699	37.3244
28.000000	92.761	36.6008
28.500000	92.836	35.6844
29.000000	92.903	34.7705
29.500000	92.964	33.8783
30.000000	93.021	33.0121
30.400000	93.065	32.3354
30.700001	93.098	31.8361
31.100000	93.142	31.1778
31.500000	93.186	30.5201
32.000000	93.240	29.6837
32.500000	93.289	28.8334
33.000000	93.330	28.0036
33.500000	93.368	27.2321
34.000000	93.410	26.5173
34.500000	93.460	25.8129
35.000000	93.513	25.0748
35.500000	93.564	24.2966
36.000000	93.606	23.5064
36.500000	93.642	22.7343
37.000000	93.672	21.9980
37.500000	93.701	21.3014
38.200001	93.743	20.3702
38.700001	93.776	19.7025
39.500000	93.824	18.5873
40.000000	93.848	17.8867
40.599998	93.871	17.0795
41.200001	93.895	16.3031
41.799999	93.922	15.5294
42.500000	93.952	14.6184
43.099998	93.976	13.8394
43.700001	93.998	13.0717
44.400002	94.021	12.2095
45.000000	94.040	11.5043
45.500000	94.057	10.9279
46.200001	94.077	10.1442
46.799999	94.091	9.5352
47.500000	94.120	8.8838
48.200001	94.162	8.1505
48.700001	94.187	7.5289
49.400002	94.196	6.6211
50.000000	94.186	5.9332
50.799999	94.175	5.1668
51.500000	94.175	4.5421
52.200001	94.183	3.9120
53.000000	94.198	3.1661
53.799999	94.215	2.3684
54.500000	94.226	1.6494
55.200001	94.234	0.9460
56.000000	94.242	0.1678
57.000000	94.253	-0.7904
58.000000	94.260	-1.7351
59.000000	94.264	-2.6509
60.000000	94.266	-3.5612
60.799999	94.264	-4.2833
61.500000	94.260	-4.8982
62.200001	94.256	-5.5043
63.000000	94.250	-6.1908
64.000000	94.240	-7.0228
65.000000	94.228	-7.8258
66.000000	94.215	-8.5876
67.000000	94.203	-9.2921
68.000000	94.198	-9.9755
69.000000	94.196	-10.6542
70.000000	94.199	-11.3358
71.000000	94.206	-12.0471
72.000000	94.213	-12.7961
73.000000	94.215	-13.5596
74.000000	94.215	-14.3154
75.000000	94.212	-15.0713
76.199997	94.202	-15.9568
77.500000	94.187	-16.8724
78.800003	94.168	-17.7571
80.000000	94.152	-18.5350
81.199997	94.140	-19.3300
82.500000	94.120	-20.2009
83.800003	94.098	-21.0161
85.000000	94.084	-21.7450
86.199997	94.071	-22.4908
87.500000	94.052	-23.2941
88.500000	94.036	-23.8905
90.000000	94.014	-24.7726
91.199997	93.995	-25.4787
92.500000	93.974	-26.2386
93.800003	93.952	-26.9864
95.000000	93.932	-27.6606
96.199997	93.912	-28.3170
97.500000	93.891	-29.0250
98.800003	93.868	-29.7117
100.000000	93.847	-30.3313
101.500000	93.821	-31.1129
103.000000	93.795	-31.8859
104.400002	93.770	-32.6163
106.000000	93.738	-33.4357
107.500000	93.707	-34.1691
109.000000	93.678	-34.8866
110.599998	93.648	-35.6510
112.000000	93.622	-36.3202
113.800003	93.588	-37.1654
115.000000	93.566	-37.7215
117.199997	93.525	-38.7250
118.000000	93.509	-39.0807
120.599998	93.460	-40.2059
122.000000	93.433	-40.7997
124.099998	93.392	-41.6798
125.000000	93.375	-42.0547
126.500000	93.346	-42.6790
128.000000	93.317	-43.3029
131.500000	93.250	-44.7480
132.000000	93.240	-44.9504
134.000000	93.199	-45.7484
136.000000	93.154	-46.5248
138.000000	93.108	-47.2802
140.000000	93.060	-48.0098
143.000000	92.984	-49.0594
145.000000	92.930	-49.7150
147.500000	92.866	-50.5094
150.000000	92.807	-51.3308
152.500000	92.744	-52.1323
155.000000	92.672	-52.8439
157.500000	92.589	-53.4387
160.000000	92.498	-53.8624
162.500000	92.412	-54.0233
165.000000	92.364	-53.8989
167.500000	92.388	-53.6456
170.000000	92.487	-53.5939
172.500000	92.624	-54.0223
175.000000	92.746	-54.9323
177.500000	92.824	-56.1082
180.000000	92.858	-57.3412
182.500000	92.861	-58.5201
185.000000	92.844	-59.6169
187.500000	92.817	-60.6335
190.000000	92.785	-61.5742
192.500000	92.747	-62.4433
195.000000	92.707	-63.2490
197.500000	92.668	-64.0169
200.000000	92.630	-64.7590
203.000000	92.584	-65.5830
206.000000	92.537	-66.3117
209.000000	92.492	-66.9423
212.000000	92.457	-67.4868
214.000000	92.443	-67.8166
218.000000	92.444	-68.4541
220.000000	92.458	-68.8044
224.000000	92.500	-69.6714
227.000000	92.527	-70.4745
230.000000	92.543	-71.3589
233.000000	92.547	-72.2584
236.000000	92.541	-73.1312
240.000000	92.523	-74.2351
243.000000	92.506	-75.0244
247.000000	92.480	-76.0348
250.000000	92.461	-76.7666
254.000000	92.435	-77.7142
258.000000	92.409	-78.6276
262.000000	92.386	-79.5083
265.000000	92.370	-80.1498
269.000000	92.349	-80.9847
272.000000	92.333	-81.5986
276.000000	92.311	-82.4003
280.000000	92.290	-83.1790
285.000000	92.264	-84.1245
290.000000	92.238	-85.0367
295.000000	92.215	-85.9012
300.000000	92.195	-86.7020
304.000000	92.182	-87.2930
307.000000	92.175	-87.7086
311.000000	92.174	-88.2366
315.000000	92.182	-88.7540
320.000000	92.208	-89.4283
325.000000	92.245	-90.1910
330.000000	92.283	-91.0592
335.000000	92.313	-91.9955
340.000000	92.333	-92.9478
345.000000	92.346	-93.8770
350.000000	92.356	-94.7760
355.000000	92.367	-95.6613
360.000000	92.378	-96.5493
365.000000	92.386	-97.4461
370.000000	92.391	-98.3448
375.000000	92.393	-99.2329
382.000000	92.393	-100.4391
387.000000	92.392	-101.2772
395.000000	92.383	-102.5779
400.000000	92.377	-103.3627
406.000000	92.370	-104.2764
412.000000	92.363	-105.1693
418.000000	92.356	-106.0469
425.000000	92.348	-107.0549
431.000000	92.342	-107.9075
437.000000	92.335	-108.7480
444.000000	92.326	-109.7078
450.000000	92.318	-110.5099
455.000000	92.311	-111.1648
462.000000	92.301	-112.0674
468.000000	92.291	-112.8305
475.000000	92.278	-113.7064
482.000000	92.264	-114.5656
487.000000	92.255	-115.1685
494.000000	92.241	-115.9957
500.000000	92.227	-116.6902
508.000000	92.208	-117.6017
515.000000	92.191	-118.3815
522.000000	92.172	-119.1454
530.000000	92.150	-119.9927
538.000000	92.126	-120.8097
545.000000	92.103	-121.5081
552.000000	92.079	-122.1908
560.000000	92.050	-122.9456
570.000000	92.014	-123.8517
580.000000	91.975	-124.7231
590.000000	91.936	-125.5598
600.000000	91.895	-126.3569
608.000000	91.861	-126.9669
615.000000	91.832	-127.4814
622.000000	91.801	-127.9777
630.000000	91.765	-128.5225
640.000000	91.719	-129.1671
650.000000	91.673	-129.7708
660.000000	91.626	-130.3404
670.000000	91.579	-130.8745
680.000000	91.533	-131.3704
690.000000	91.487	-131.8314
700.000000	91.441	-132.2551
710.000000	91.395	-132.6448
720.000000	91.350	-132.9977
730.000000	91.307	-133.3137
740.000000	91.265	-133.5998
750.000000	91.224	-133.8574
762.000000	91.176	-134.1258
775.000000	91.128	-134.3621
788.000000	91.081	-134.5400
800.000000	91.042	-134.6635
812.000000	91.008	-134.7581
825.000000	90.976	-134.8242
838.000000	90.949	-134.8521
850.000000	90.928	-134.8396
862.000000	90.910	-134.7943
875.000000	90.897	-134.7197
885.000000	90.890	-134.6465
900.000000	90.887	-134.5153
912.000000	90.891	-134.3958
925.000000	90.901	-134.2522
938.000000	90.917	-134.0988
950.000000	90.938	-133.9546
962.000000	90.964	-133.8099
975.000000	90.997	-133.6550
988.000000	91.035	-133.5060
1000.000000	91.074	-133.3748
1015.000000	91.129	-133.2273
1030.000000	91.188	-133.1028
1044.000000	91.248	-133.0056
1060.000000	91.321	-132.9196
1075.000000	91.392	-132.8677
1090.000000	91.465	-132.8466
1106.000000	91.545	-132.8516
1120.000000	91.615	-132.8758
1138.000000	91.706	-132.9352
1150.000000	91.766	-132.9948
1172.000000	91.875	-133.1370
1180.000000	91.914	-133.1957
1206.000000	92.036	-133.4072
1220.000000	92.101	-133.5341
1241.000000	92.195	-133.7361
1250.000000	92.234	-133.8241
1265.000000	92.299	-133.9704
1280.000000	92.361	-134.1146
1315.000000	92.503	-134.4346
1320.000000	92.523	-134.4781
1340.000000	92.601	-134.6476
1360.000000	92.680	-134.8043
1380.000000	92.759	-134.9446
1400.000000	92.838	-135.0725
1430.000000	92.959	-135.2337
1450.000000	93.041	-135.3239
1475.000000	93.147	-135.4261
1500.000000	93.258	-135.5176
1525.000000	93.373	-135.6037
1550.000000	93.495	-135.6886
1575.000000	93.622	-135.7820
1600.000000	93.756	-135.8882
1625.000000	93.896	-136.0095
1650.000000	94.041	-136.1534
1675.000000	94.192	-136.3242
1700.000000	94.348	-136.5363
1725.000000	94.510	-136.7992
1750.000000	94.676	-137.1086
1775.000000	94.845	-137.4744
1800.000000	95.018	-137.9073
1825.000000	95.193	-138.4065
1850.000000	95.367	-138.9756
1875.000000	95.541	-139.6189
1900.000000	95.712	-140.3345
1925.000000	95.879	-141.1271
1950.000000	96.042	-141.9967
1975.000000	96.198	-142.9361
2000.000000	96.347	-143.9435
2030.000000	96.513	-145.2394
2060.000000	96.665	-146.6117
2090.000000	96.799	-148.0474
2120.000000	96.915	-149.5370
2140.000000	96.983	-150.5484
2180.000000	97.092	-152.5953
2200.000000	97.134	-153.6217
2240.000000	97.194	-155.6487
2270.000000	97.220	-157.1329
2300.000000	97.231	-158.5729
2330.000000	97.229	-159.9537
2360.000000	97.215	-161.2707
2400.000000	97.181	-162.9222
2430.000000	97.147	-164.0740
2470.000000	97.095	-165.4976
2500.000000	97.052	-166.4840
2540.000000	96.992	-167.6884
2580.000000	96.933	-168.7849
2620.000000	96.879	-169.7944
2650.000000	96.843	-170.5018
2690.000000	96.800	-171.3937
2720.000000	96.772	-172.0321
2760.000000	96.740	-172.8547
2800.000000	96.713	-173.6600
2850.000000	96.684	-174.6512
2900.000000	96.658	-175.6301
2950.000000	96.631	-176.5922
3000.000000	96.602	-177.5088
3040.000000	96.578	-178.1982
3070.000000	96.560	-178.6837
3110.000000	96.537	-179.2811
3150.000000	96.519	-179.8228
3200.000000	96.504	179.5677
3250.000000	96.502	179.0180
3300.000000	96.513	178.5059
3350.000000	96.539	178.0075
3400.000000	96.581	177.5000
3450.000000	96.639	176.9614
3500.000000	96.710	176.3765
3550.000000	96.796	175.7258
3600.000000	96.895	174.9886
3650.000000	97.006	174.1497
3700.000000	97.126	173.1923
3750.000000	97.253	172.1001
3820.000000	97.436	170.3220
3870.000000	97.566	168.8547
3950.000000	97.765	166.1392
4000.000000	97.875	164.2110
4060.000000	97.986	161.6701
4120.000000	98.064	158.9067
4180.000000	98.103	155.9615
4250.000000	98.092	152.3746
4310.000000	98.031	149.2557
4370.000000	97.926	146.1697
4440.000000	97.758	142.6854
4500.000000	97.585	139.8286
4550.000000	97.430	137.5231
4620.000000	97.204	134.3261
4680.000000	97.007	131.4865
4750.000000	96.752	127.8638
4820.000000	96.422	123.8023
4870.000000	96.100	120.7408
4940.000000	95.490	116.7072
5000.000000	94.828	114.0414
5080.000000	93.840	112.2725
5150.000000	93.001	112.3807
5220.000000	92.279	113.5330
5300.000000	91.624	115.4667
5380.000000	91.135	117.6448
5450.000000	90.836	119.4554
5520.000000	90.638	120.9167
5600.000000	90.499	121.6839
5700.000000	90.187	120.6482
5800.000000	89.389	120.8220
5900.000000	88.666	124.4325
6000.000000	88.317	128.5277
6080.000000	88.169	131.4198
6150.000000	88.083	133.7650
6220.000000	88.029	136.0235
6300.000000	88.005	138.5502
6400.000000	88.031	141.6490
6500.000000	88.124	144.6757
6600.000000	88.285	147.6075
6700.000000	88.516	150.4009
6800.000000	88.816	152.9915
6900.000000	89.180	155.2971
7000.000000	89.599	157.3010
7100.000000	90.076	159.0365
7200.000000	90.627	160.3878
7300.000000	91.242	161.1277
7400.000000	91.892	161.1181
7500.000000	92.549	160.2768
7620.000000	93.301	158.0911
7750.000000	93.995	154.2991
7880.000000	94.479	149.3170
8000.000000	94.687	144.2286
8120.000000	94.662	139.3413
8250.000000	94.421	134.9177
8380.000000	94.041	131.7730
8500.000000	93.643	130.0435
8620.000000	93.258	129.2992
8750.000000	92.899	129.3567
8850.000000	92.682	129.8361
9000.000000	92.471	130.9736
9120.000000	92.405	132.0155
9250.000000	92.438	133.0406
9380.000000	92.575	133.7194
9500.000000	92.782	133.7644
9620.000000	93.034	133.0054
9750.000000	93.305	131.0884
9880.000000	93.502	127.9387
10000.000000	93.547	124.0475
10150.000000	93.334	118.4163
10300.000000	92.777	112.9414
10440.000000	91.974	108.9352
10600.000000	90.828	106.3859
10750.000000	89.653	106.1144
10900.000000	88.485	107.6953
11060.000000	87.318	111.0643
11200.000000	86.396	115.1453
11380.000000	85.366	121.5992
11500.000000	84.776	126.5198
11720.000000	83.898	136.7028
11800.000000	83.654	140.7496
12060.000000	83.187	154.6484
12200.000000	83.147	162.2888
12410.000000	83.357	173.4908
12500.000000	83.542	178.0584
12650.000000	83.965	-174.8484
12800.000000	84.498	-168.6221
13150.000000	85.884	-158.4563
13200.000000	86.067	-157.5245
13400.000000	86.683	-154.8961
13600.000000	87.061	-153.5366
13800.000000	87.164	-152.6436
14000.000000	87.007	-151.3489
14300.000000	86.450	-147.0817
14500.000000	86.056	-142.5192
14750.000000	85.649	-135.5436
15000.000000	85.391	-127.1732
15250.000000	85.414	-117.7180
15500.000000	85.847	-107.7346
15750.000000	86.822	-98.2887
16000.000000	88.317	-91.1490
16250.000000	90.136	-87.7156
16500.000000	92.153	-88.7108
16750.000000	94.146	-96.0644
17000.000000	95.476	-112.0915
17250.000000	95.474	-133.6542
17500.000000	94.087	-152.2186
17750.000000	91.872	-163.2280
18000.000000	89.502	-168.0750
18250.000000	87.404	-169.5884
18500.000000	85.734	-170.0731
18750.000000	84.475	-171.2684
19000.000000	83.509	-174.5247
19250.000000	82.627	179.3389
19500.000000	81.604	170.6588
19750.000000	80.402	161.3865
