* Measurement data measured by REW V5.20.13
* Source: Primary Sound Capture Driver, no input selected, R, volume: no control
* Format: 256k Log Swept Sine, 1 sweep at 0.0 dBFS with no timing reference
* Dated: 01/11/2023 12:41:46 PM
* REW Settings:
*  C-weighting compensation: Off
*  Target level: 75.0 dB
* Note: ; 
* Measurement: 64Audio Volur MX R
* Smoothing: 1/24 octave
* Frequency Step: 1/48 octave
* Start Frequency: 20.000 Hz
*
* Freq(Hz)	SPL(dB)	Phase(degrees)
20.000000	90.205	26.0275
20.299999	90.260	25.1555
20.600000	90.310	24.3194
20.900000	90.357	23.5341
21.200001	90.407	22.7986
21.400000	90.443	22.3237
21.799999	90.525	21.3774
22.000000	90.569	20.8895
22.400000	90.659	19.8590
22.700001	90.724	19.0393
23.000000	90.783	18.1944
23.299999	90.834	17.3449
23.600000	90.879	16.5077
24.000000	90.930	15.4319
24.299999	90.965	14.6654
24.700001	91.009	13.7008
25.000000	91.043	13.0157
25.400000	91.092	12.1362
25.799999	91.145	11.2657
26.200001	91.201	10.3779
26.500000	91.242	9.6998
26.900000	91.292	8.7966
27.200001	91.327	8.1368
27.600000	91.375	7.2899
28.000000	91.430	6.4576
28.500000	91.505	5.3669
29.000000	91.577	4.1748
29.500000	91.631	2.9356
30.000000	91.668	1.7584
30.400000	91.694	0.8934
30.700001	91.716	0.2778
31.100000	91.748	-0.5273
31.500000	91.780	-1.3270
32.000000	91.820	-2.3028
32.500000	91.862	-3.2333
33.000000	91.915	-4.1647
33.500000	91.974	-5.1785
34.000000	92.024	-6.2958
34.500000	92.054	-7.4326
35.000000	92.069	-8.4891
35.500000	92.085	-9.4456
36.000000	92.111	-10.3698
36.500000	92.142	-11.3250
37.000000	92.170	-12.3104
37.500000	92.193	-13.2853
38.200001	92.225	-14.6017
38.700001	92.250	-15.5313
39.500000	92.288	-17.0248
40.000000	92.307	-17.9409
40.599998	92.329	-19.0077
41.200001	92.350	-20.0441
41.799999	92.370	-21.0619
42.500000	92.394	-22.2476
43.099998	92.410	-23.2665
43.700001	92.425	-24.2692
44.400002	92.443	-25.4284
45.000000	92.461	-26.4510
45.500000	92.472	-27.3105
46.200001	92.490	-28.4656
46.799999	92.519	-29.4607
47.500000	92.559	-30.8097
48.200001	92.557	-32.2702
48.700001	92.529	-33.1558
49.400002	92.498	-34.0244
50.000000	92.514	-34.6373
50.799999	92.569	-35.6603
51.500000	92.602	-36.7126
52.200001	92.618	-37.7311
53.000000	92.631	-38.8362
53.799999	92.639	-39.9183
54.500000	92.645	-40.8416
55.200001	92.651	-41.7728
56.000000	92.654	-42.8568
57.000000	92.651	-44.1497
58.000000	92.664	-45.3973
59.000000	92.685	-46.7445
60.000000	92.692	-48.1470
60.799999	92.689	-49.2123
61.500000	92.688	-50.0927
62.200001	92.692	-50.9590
63.000000	92.698	-51.9668
64.000000	92.700	-53.2310
65.000000	92.699	-54.4438
66.000000	92.701	-55.6279
67.000000	92.705	-56.8186
68.000000	92.706	-57.9961
69.000000	92.706	-59.1476
70.000000	92.708	-60.2830
71.000000	92.709	-61.4044
72.000000	92.708	-62.5085
73.000000	92.706	-63.5898
74.000000	92.703	-64.6504
75.000000	92.699	-65.6883
76.199997	92.694	-66.9122
77.500000	92.688	-68.2388
78.800003	92.679	-69.5392
80.000000	92.672	-70.7256
81.199997	92.665	-71.9006
82.500000	92.658	-73.1482
83.800003	92.651	-74.3816
85.000000	92.642	-75.5084
86.199997	92.630	-76.6139
87.500000	92.616	-77.7729
88.500000	92.606	-78.6422
90.000000	92.592	-79.9346
91.199997	92.580	-80.9502
92.500000	92.564	-82.0488
93.800003	92.543	-83.1459
95.000000	92.524	-84.1453
96.199997	92.507	-85.1593
97.500000	92.487	-86.2642
98.800003	92.466	-87.3416
100.000000	92.439	-88.2875
101.500000	92.402	-89.2819
103.000000	92.378	-90.2130
104.400002	92.350	-91.1131
106.000000	92.307	-92.1435
107.500000	92.259	-93.0758
109.000000	92.209	-93.9528
110.599998	92.156	-94.8019
112.000000	92.111	-95.4492
113.800003	92.061	-96.1608
115.000000	92.034	-96.5946
117.199997	91.996	-97.3513
118.000000	91.986	-97.6129
120.599998	91.961	-98.4215
122.000000	91.949	-98.8089
124.099998	91.931	-99.2645
125.000000	91.926	-99.4003
126.500000	91.930	-99.5336
128.000000	91.959	-99.5648
131.500000	92.172	-99.5866
132.000000	92.220	-99.6489
134.000000	92.429	-100.2148
136.000000	92.632	-101.3008
138.000000	92.795	-102.7706
140.000000	92.909	-104.3945
143.000000	93.013	-106.7924
145.000000	93.051	-108.3220
147.500000	93.070	-110.1299
150.000000	93.072	-111.8174
152.500000	93.063	-113.3835
155.000000	93.048	-114.8330
157.500000	93.025	-116.1822
160.000000	93.000	-117.4398
162.500000	92.974	-118.6249
165.000000	92.950	-119.7469
167.500000	92.927	-120.8121
170.000000	92.905	-121.8351
172.500000	92.885	-122.8206
175.000000	92.867	-123.7758
177.500000	92.851	-124.7076
180.000000	92.834	-125.6090
182.500000	92.817	-126.4707
185.000000	92.801	-127.3088
187.500000	92.784	-128.1313
190.000000	92.770	-128.9270
192.500000	92.756	-129.6956
195.000000	92.743	-130.4467
197.500000	92.730	-131.1909
200.000000	92.717	-131.9185
203.000000	92.700	-132.7611
206.000000	92.684	-133.5798
209.000000	92.668	-134.3834
212.000000	92.654	-135.1710
214.000000	92.644	-135.6796
218.000000	92.625	-136.6627
220.000000	92.616	-137.1494
224.000000	92.597	-138.1012
227.000000	92.583	-138.7816
230.000000	92.569	-139.4340
233.000000	92.557	-140.0721
236.000000	92.545	-140.7084
240.000000	92.527	-141.5380
243.000000	92.514	-142.1401
247.000000	92.496	-142.9174
250.000000	92.484	-143.4828
254.000000	92.468	-144.2155
258.000000	92.452	-144.9254
262.000000	92.436	-145.6085
265.000000	92.424	-146.1052
269.000000	92.407	-146.7504
272.000000	92.395	-147.2180
276.000000	92.380	-147.8278
280.000000	92.366	-148.4233
285.000000	92.347	-149.1343
290.000000	92.329	-149.8120
295.000000	92.315	-150.4615
300.000000	92.303	-151.0858
304.000000	92.296	-151.5730
307.000000	92.292	-151.9390
311.000000	92.286	-152.4302
315.000000	92.280	-152.9235
320.000000	92.270	-153.5386
325.000000	92.258	-154.1371
330.000000	92.244	-154.7115
335.000000	92.230	-155.2650
340.000000	92.216	-155.7895
345.000000	92.201	-156.2881
350.000000	92.187	-156.7706
355.000000	92.175	-157.2285
360.000000	92.164	-157.6691
365.000000	92.156	-158.0980
370.000000	92.149	-158.5124
375.000000	92.144	-158.9221
382.000000	92.138	-159.5008
387.000000	92.134	-159.9210
395.000000	92.128	-160.5989
400.000000	92.123	-161.0208
406.000000	92.113	-161.5214
412.000000	92.102	-162.0095
418.000000	92.088	-162.4849
425.000000	92.069	-163.0148
431.000000	92.053	-163.4462
437.000000	92.036	-163.8599
444.000000	92.015	-164.3074
450.000000	91.998	-164.6704
455.000000	91.983	-164.9668
462.000000	91.963	-165.3671
468.000000	91.946	-165.6934
475.000000	91.927	-166.0579
482.000000	91.908	-166.4012
487.000000	91.894	-166.6345
494.000000	91.876	-166.9495
500.000000	91.859	-167.2090
508.000000	91.838	-167.5400
515.000000	91.820	-167.8154
522.000000	91.804	-168.0757
530.000000	91.784	-168.3572
538.000000	91.765	-168.6224
545.000000	91.749	-168.8400
552.000000	91.733	-169.0453
560.000000	91.715	-169.2664
570.000000	91.693	-169.5200
580.000000	91.672	-169.7516
590.000000	91.652	-169.9610
600.000000	91.632	-170.1450
608.000000	91.618	-170.2775
615.000000	91.606	-170.3844
622.000000	91.594	-170.4793
630.000000	91.581	-170.5720
640.000000	91.565	-170.6675
650.000000	91.551	-170.7427
660.000000	91.539	-170.7983
670.000000	91.527	-170.8395
680.000000	91.516	-170.8666
690.000000	91.508	-170.8688
700.000000	91.501	-170.8500
710.000000	91.494	-170.8094
720.000000	91.490	-170.7562
730.000000	91.487	-170.6924
740.000000	91.487	-170.6040
750.000000	91.489	-170.4940
762.000000	91.493	-170.3405
775.000000	91.502	-170.1514
788.000000	91.515	-169.9438
800.000000	91.532	-169.7351
812.000000	91.552	-169.5006
825.000000	91.578	-169.2297
838.000000	91.609	-168.9443
850.000000	91.643	-168.6683
862.000000	91.682	-168.3826
875.000000	91.729	-168.0604
885.000000	91.769	-167.8070
900.000000	91.836	-167.4277
912.000000	91.894	-167.1229
925.000000	91.963	-166.7936
938.000000	92.039	-166.4769
950.000000	92.114	-166.1942
962.000000	92.193	-165.9233
975.000000	92.284	-165.6450
988.000000	92.378	-165.3815
1000.000000	92.470	-165.1582
1015.000000	92.589	-164.9116
1030.000000	92.713	-164.7003
1044.000000	92.832	-164.5366
1060.000000	92.973	-164.3906
1075.000000	93.107	-164.2949
1090.000000	93.243	-164.2413
1106.000000	93.388	-164.2255
1120.000000	93.515	-164.2456
1138.000000	93.677	-164.3229
1150.000000	93.784	-164.4019
1172.000000	93.978	-164.5972
1180.000000	94.048	-164.6851
1206.000000	94.267	-165.0146
1220.000000	94.383	-165.2104
1241.000000	94.551	-165.5382
1250.000000	94.621	-165.6899
1265.000000	94.736	-165.9498
1280.000000	94.849	-166.2089
1315.000000	95.105	-166.8546
1320.000000	95.140	-166.9503
1340.000000	95.279	-167.3243
1360.000000	95.415	-167.6846
1380.000000	95.548	-168.0556
1400.000000	95.679	-168.4337
1430.000000	95.872	-168.9666
1450.000000	95.999	-169.3113
1475.000000	96.156	-169.7515
1500.000000	96.314	-170.1827
1525.000000	96.472	-170.6015
1550.000000	96.632	-171.0198
1575.000000	96.795	-171.4655
1600.000000	96.958	-171.9251
1625.000000	97.120	-172.3838
1650.000000	97.283	-172.8587
1675.000000	97.448	-173.3802
1700.000000	97.616	-173.9343
1725.000000	97.784	-174.5250
1750.000000	97.950	-175.1614
1775.000000	98.113	-175.8474
1800.000000	98.274	-176.5876
1825.000000	98.430	-177.3857
1850.000000	98.582	-178.2370
1875.000000	98.726	-179.1339
1900.000000	98.861	179.9175
1925.000000	98.985	178.9203
1950.000000	99.101	177.8799
1975.000000	99.206	176.7870
2000.000000	99.297	175.6651
2030.000000	99.386	174.3154
2060.000000	99.453	172.9457
2090.000000	99.500	171.5695
2120.000000	99.526	170.2264
2140.000000	99.533	169.3434
2180.000000	99.521	167.6295
2200.000000	99.503	166.8177
2240.000000	99.445	165.2847
2270.000000	99.384	164.2144
2300.000000	99.312	163.2269
2330.000000	99.229	162.3276
2360.000000	99.139	161.5199
2400.000000	99.008	160.5814
2430.000000	98.904	159.9700
2470.000000	98.761	159.2546
2500.000000	98.652	158.7883
2540.000000	98.505	158.2604
2580.000000	98.356	157.8409
2620.000000	98.209	157.5180
2650.000000	98.101	157.3232
2690.000000	97.958	157.1514
2720.000000	97.851	157.0847
2760.000000	97.710	157.0511
2800.000000	97.575	157.0900
2850.000000	97.414	157.2329
2900.000000	97.260	157.4768
2950.000000	97.117	157.8289
3000.000000	96.982	158.2460
3040.000000	96.876	158.6750
3070.000000	96.797	159.0378
3110.000000	96.698	159.5514
3150.000000	96.608	160.1143
3200.000000	96.504	160.8871
3250.000000	96.409	161.7404
3300.000000	96.324	162.6683
3350.000000	96.250	163.6628
3400.000000	96.189	164.7136
3450.000000	96.139	165.8214
3500.000000	96.103	166.9756
3550.000000	96.082	168.1599
3600.000000	96.076	169.3710
3650.000000	96.085	170.5927
3700.000000	96.109	171.8162
3750.000000	96.147	173.0397
3820.000000	96.228	174.6964
3870.000000	96.306	175.8290
3950.000000	96.462	177.5144
4000.000000	96.579	178.4580
4060.000000	96.734	179.4686
4120.000000	96.904	-179.6874
4180.000000	97.088	-179.0331
4250.000000	97.313	-178.5273
4310.000000	97.514	-178.3516
4370.000000	97.718	-178.4473
4440.000000	97.949	-178.9708
4500.000000	98.129	-179.8430
4550.000000	98.250	179.1131
4620.000000	98.348	177.2012
4680.000000	98.337	175.2739
4750.000000	98.190	173.0235
4820.000000	97.896	171.2480
4870.000000	97.617	170.5116
4940.000000	97.182	170.3619
5000.000000	96.815	170.9933
5080.000000	96.384	172.6305
5150.000000	96.075	174.5125
5220.000000	95.821	176.6064
5300.000000	95.577	179.1335
5380.000000	95.365	-178.2259
5450.000000	95.200	-175.8180
5520.000000	95.056	-173.3220
5600.000000	94.918	-170.3705
5700.000000	94.789	-166.6236
5800.000000	94.707	-162.9497
5900.000000	94.652	-159.4366
6000.000000	94.604	-156.1100
6080.000000	94.557	-153.5563
6150.000000	94.501	-151.3772
6220.000000	94.424	-149.2171
6300.000000	94.305	-146.6898
6400.000000	94.107	-143.2525
6500.000000	93.875	-139.2502
6600.000000	93.668	-134.6124
6700.000000	93.519	-129.5940
6800.000000	93.434	-124.3406
6900.000000	93.415	-119.0510
7000.000000	93.434	-113.8782
7100.000000	93.479	-108.7615
7200.000000	93.554	-103.6615
7300.000000	93.664	-98.6046
7400.000000	93.817	-93.6276
7500.000000	94.021	-88.8390
7620.000000	94.330	-83.6266
7750.000000	94.697	-78.9529
7880.000000	95.039	-75.4755
8000.000000	95.264	-73.4769
8120.000000	95.306	-72.5226
8250.000000	95.054	-71.9937
8380.000000	94.472	-70.9122
8500.000000	93.691	-68.5891
8620.000000	92.768	-64.5868
8750.000000	91.722	-58.3325
8850.000000	90.952	-52.3527
9000.000000	89.933	-42.0323
9120.000000	89.257	-33.1687
9250.000000	88.623	-23.3327
9380.000000	88.050	-13.1914
9500.000000	87.581	-3.5050
9620.000000	87.182	6.4124
9750.000000	86.829	17.2865
9880.000000	86.552	28.1771
10000.000000	86.354	38.1590
10150.000000	86.166	50.4636
10300.000000	86.023	62.5391
10440.000000	85.911	73.6155
10600.000000	85.792	86.1007
10750.000000	85.675	97.7128
10900.000000	85.545	109.3199
11060.000000	85.392	121.7961
11200.000000	85.250	132.8853
11380.000000	85.067	147.4926
11500.000000	84.957	157.4738
11720.000000	84.806	176.2918
11800.000000	84.774	-176.6964
12060.000000	84.806	-153.3302
12200.000000	84.931	-140.5357
12410.000000	85.286	-121.5327
12500.000000	85.496	-113.5520
12650.000000	85.910	-100.5712
12800.000000	86.390	-88.0903
13150.000000	87.652	-61.3532
13200.000000	87.835	-57.8336
13400.000000	88.537	-44.5143
13600.000000	89.140	-32.2893
13800.000000	89.592	-20.8223
14000.000000	89.867	-9.6125
14300.000000	89.981	7.8489
14500.000000	89.916	20.4772
14750.000000	89.762	37.8841
15000.000000	89.671	57.5614
15250.000000	89.903	79.5536
15500.000000	90.801	102.7708
15750.000000	92.519	124.5658
16000.000000	94.713	141.6291
16250.000000	96.781	152.4584
16500.000000	98.416	158.5091
16750.000000	99.586	161.6055
17000.000000	100.257	162.5778
17250.000000	100.345	162.3722
17500.000000	99.825	162.7868
17750.000000	98.825	165.4857
18000.000000	97.557	170.8684
18250.000000	96.194	178.3249
18500.000000	94.807	-172.9803
18750.000000	93.380	-163.5771
19000.000000	91.856	-153.5249
19250.000000	90.185	-142.4970
19500.000000	88.371	-130.2122
19750.000000	86.563	-117.8172
