* Measurement data measured by REW V5.20.13
* Source: Primary Sound Capture Driver, no input selected, R, volume: no control
* Format: 256k Log Swept Sine, 1 sweep at 0.0 dBFS with no timing reference
* Dated: 01/11/2023 12:37:22 PM
* REW Settings:
*  C-weighting compensation: Off
*  Target level: 75.0 dB
* Note: ; 
* Measurement: 64Audio Volur No Module L
* Smoothing: 1/24 octave
* Frequency Step: 1/48 octave
* Start Frequency: 20.000 Hz
*
* Freq(Hz)	SPL(dB)	Phase(degrees)
20.000000	78.880	-76.7521
20.299999	79.002	-77.2092
20.600000	79.128	-77.6495
20.900000	79.259	-78.0807
21.200001	79.396	-78.5141
21.400000	79.491	-78.8162
21.799999	79.684	-79.4738
22.000000	79.781	-79.8359
22.400000	79.969	-80.6220
22.700001	80.102	-81.2394
23.000000	80.228	-81.8501
23.299999	80.350	-82.4414
23.600000	80.470	-83.0186
24.000000	80.628	-83.7880
24.299999	80.742	-84.3764
24.700001	80.881	-85.1569
25.000000	80.976	-85.7004
25.400000	81.095	-86.3169
25.799999	81.220	-86.8034
26.200001	81.361	-87.2349
26.500000	81.478	-87.5925
26.900000	81.637	-88.1753
27.200001	81.748	-88.6911
27.600000	81.878	-89.4273
28.000000	81.985	-90.1209
28.500000	82.103	-90.8281
29.000000	82.225	-91.3754
29.500000	82.360	-91.8649
30.000000	82.503	-92.3803
30.400000	82.618	-92.8260
30.700001	82.703	-93.1781
31.100000	82.813	-93.6678
31.500000	82.916	-94.1725
32.000000	83.035	-94.7917
32.500000	83.146	-95.3480
33.000000	83.259	-95.8275
33.500000	83.383	-96.2871
34.000000	83.512	-96.8082
34.500000	83.635	-97.4064
35.000000	83.743	-98.0168
35.500000	83.842	-98.5627
36.000000	83.943	-99.0402
36.500000	84.052	-99.5101
37.000000	84.163	-100.0268
37.500000	84.267	-100.5808
38.200001	84.400	-101.3269
38.700001	84.492	-101.8095
39.500000	84.645	-102.5633
40.000000	84.739	-103.0482
40.599998	84.845	-103.6147
41.200001	84.948	-104.1291
41.799999	85.055	-104.6075
42.500000	85.184	-105.1779
43.099998	85.293	-105.6970
43.700001	85.395	-106.2257
44.400002	85.509	-106.8333
45.000000	85.602	-107.3513
45.500000	85.676	-107.7932
46.200001	85.768	-108.4132
46.799999	85.833	-108.8747
47.500000	85.912	-109.2424
48.200001	86.024	-109.5354
48.700001	86.121	-109.8493
49.400002	86.249	-110.5203
50.000000	86.330	-111.1686
50.799999	86.412	-111.8732
51.500000	86.489	-112.3506
52.200001	86.576	-112.8191
53.000000	86.676	-113.3702
53.799999	86.774	-113.9298
54.500000	86.854	-114.4284
55.200001	86.929	-114.8974
56.000000	87.016	-115.3892
57.000000	87.126	-116.0062
58.000000	87.232	-116.5914
59.000000	87.347	-117.1668
60.000000	87.459	-117.8029
60.799999	87.545	-118.3187
61.500000	87.617	-118.7810
62.200001	87.684	-119.2587
63.000000	87.753	-119.7790
64.000000	87.838	-120.3606
65.000000	87.930	-120.9485
66.000000	88.017	-121.5652
67.000000	88.100	-122.1614
68.000000	88.180	-122.7290
69.000000	88.257	-123.2621
70.000000	88.331	-123.7678
71.000000	88.399	-124.2437
72.000000	88.463	-124.6513
73.000000	88.535	-125.0447
74.000000	88.608	-125.4712
75.000000	88.683	-125.9214
76.199997	88.775	-126.5263
77.500000	88.872	-127.2194
78.800003	88.964	-127.9156
80.000000	89.042	-128.5291
81.199997	89.115	-129.0829
82.500000	89.192	-129.6603
83.800003	89.261	-130.2217
85.000000	89.324	-130.7274
86.199997	89.388	-131.2457
87.500000	89.459	-131.8298
88.500000	89.512	-132.2903
90.000000	89.590	-132.9688
91.199997	89.649	-133.4931
92.500000	89.707	-134.0268
93.800003	89.759	-134.5206
95.000000	89.802	-134.9346
96.199997	89.846	-135.2970
97.500000	89.907	-135.7101
98.800003	89.967	-136.2452
100.000000	90.014	-136.7587
101.500000	90.073	-137.3777
103.000000	90.133	-137.9930
104.400002	90.187	-138.5612
106.000000	90.244	-139.2007
107.500000	90.291	-139.7754
109.000000	90.336	-140.3484
110.599998	90.378	-140.9707
112.000000	90.411	-141.5013
113.800003	90.451	-142.1595
115.000000	90.474	-142.5788
117.199997	90.512	-143.3258
118.000000	90.524	-143.5905
120.599998	90.554	-144.4087
122.000000	90.567	-144.8312
124.099998	90.582	-145.4527
125.000000	90.585	-145.7104
126.500000	90.588	-146.1261
128.000000	90.586	-146.5241
131.500000	90.558	-147.3194
132.000000	90.551	-147.4155
134.000000	90.516	-147.7370
136.000000	90.467	-147.8940
138.000000	90.410	-147.8082
140.000000	90.356	-147.3817
143.000000	90.350	-146.0413
145.000000	90.454	-144.8559
147.500000	90.750	-143.6817
150.000000	91.140	-143.6117
152.500000	91.476	-144.6255
155.000000	91.707	-146.1604
157.500000	91.848	-147.7984
160.000000	91.927	-149.2822
162.500000	91.973	-150.5501
165.000000	91.998	-151.6467
167.500000	92.012	-152.6051
170.000000	92.024	-153.4658
172.500000	92.033	-154.2488
175.000000	92.040	-154.9529
177.500000	92.047	-155.5959
180.000000	92.054	-156.2143
182.500000	92.060	-156.8031
185.000000	92.067	-157.3534
187.500000	92.076	-157.8809
190.000000	92.084	-158.3878
192.500000	92.090	-158.8723
195.000000	92.097	-159.3477
197.500000	92.105	-159.8240
200.000000	92.114	-160.2906
203.000000	92.125	-160.8261
206.000000	92.136	-161.3414
209.000000	92.142	-161.8419
212.000000	92.149	-162.3343
214.000000	92.153	-162.6623
218.000000	92.160	-163.3085
220.000000	92.163	-163.6295
224.000000	92.167	-164.2598
227.000000	92.168	-164.7039
230.000000	92.168	-165.1275
233.000000	92.168	-165.5422
236.000000	92.167	-165.9505
240.000000	92.166	-166.4766
243.000000	92.165	-166.8609
247.000000	92.160	-167.3665
250.000000	92.156	-167.7376
254.000000	92.151	-168.2164
258.000000	92.145	-168.6706
262.000000	92.139	-169.1082
265.000000	92.133	-169.4293
269.000000	92.122	-169.8457
272.000000	92.114	-170.1450
276.000000	92.103	-170.5316
280.000000	92.092	-170.9142
285.000000	92.075	-171.3792
290.000000	92.055	-171.8203
295.000000	92.032	-172.2122
300.000000	92.009	-172.5481
304.000000	91.989	-172.7805
307.000000	91.975	-172.9330
311.000000	91.959	-173.1057
315.000000	91.950	-173.2511
320.000000	91.950	-173.4197
325.000000	91.962	-173.6128
330.000000	91.980	-173.8829
335.000000	91.998	-174.2212
340.000000	92.008	-174.6068
345.000000	92.010	-175.0121
350.000000	92.005	-175.4106
355.000000	91.994	-175.7939
360.000000	91.980	-176.1590
365.000000	91.964	-176.5029
370.000000	91.946	-176.8255
375.000000	91.926	-177.1293
382.000000	91.897	-177.5141
387.000000	91.875	-177.7610
395.000000	91.839	-178.1077
400.000000	91.816	-178.2874
406.000000	91.793	-178.4698
412.000000	91.775	-178.6378
418.000000	91.763	-178.8128
425.000000	91.752	-179.0474
431.000000	91.742	-179.2782
437.000000	91.729	-179.5232
444.000000	91.708	-179.7997
450.000000	91.688	179.9840
455.000000	91.670	179.8212
462.000000	91.643	179.6135
468.000000	91.621	179.4495
475.000000	91.595	179.2735
482.000000	91.568	179.1139
487.000000	91.549	179.0077
494.000000	91.522	178.8699
500.000000	91.499	178.7652
508.000000	91.470	178.6456
515.000000	91.444	178.5527
522.000000	91.420	178.4708
530.000000	91.392	178.3920
538.000000	91.364	178.3289
545.000000	91.341	178.2895
552.000000	91.318	178.2650
560.000000	91.293	178.2477
570.000000	91.263	178.2388
580.000000	91.234	178.2483
590.000000	91.206	178.2763
600.000000	91.180	178.3237
608.000000	91.161	178.3740
615.000000	91.144	178.4267
622.000000	91.128	178.4900
630.000000	91.111	178.5732
640.000000	91.090	178.6898
650.000000	91.071	178.8230
660.000000	91.053	178.9743
670.000000	91.037	179.1431
680.000000	91.023	179.3260
690.000000	91.011	179.5249
700.000000	91.000	179.7381
710.000000	90.991	179.9697
720.000000	90.985	-179.7825
730.000000	90.980	-179.5202
740.000000	90.979	-179.2433
750.000000	90.979	-178.9551
762.000000	90.984	-178.5923
775.000000	90.993	-178.1805
788.000000	91.007	-177.7483
800.000000	91.025	-177.3351
812.000000	91.047	-176.9053
825.000000	91.077	-176.4282
838.000000	91.113	-175.9436
850.000000	91.151	-175.4893
862.000000	91.194	-175.0301
875.000000	91.247	-174.5309
885.000000	91.291	-174.1441
900.000000	91.364	-173.5639
912.000000	91.428	-173.1045
925.000000	91.504	-172.6165
938.000000	91.586	-172.1505
950.000000	91.668	-171.7324
962.000000	91.754	-171.3262
975.000000	91.852	-170.9056
988.000000	91.955	-170.5093
1000.000000	92.055	-170.1679
1015.000000	92.184	-169.7773
1030.000000	92.318	-169.4315
1044.000000	92.447	-169.1464
1060.000000	92.598	-168.8633
1075.000000	92.741	-168.6464
1090.000000	92.887	-168.4776
1106.000000	93.043	-168.3454
1120.000000	93.180	-168.2678
1138.000000	93.354	-168.2144
1150.000000	93.470	-168.2021
1172.000000	93.681	-168.2320
1180.000000	93.757	-168.2615
1206.000000	94.000	-168.4045
1220.000000	94.129	-168.5021
1241.000000	94.320	-168.6891
1250.000000	94.401	-168.7840
1265.000000	94.536	-168.9547
1280.000000	94.670	-169.1339
1315.000000	94.977	-169.6420
1320.000000	95.020	-169.7248
1340.000000	95.191	-170.0664
1360.000000	95.359	-170.4198
1380.000000	95.523	-170.8047
1400.000000	95.683	-171.2247
1430.000000	95.916	-171.8663
1450.000000	96.067	-172.3101
1475.000000	96.251	-172.9004
1500.000000	96.432	-173.4995
1525.000000	96.609	-174.1002
1550.000000	96.784	-174.7049
1575.000000	96.959	-175.3375
1600.000000	97.130	-175.9821
1625.000000	97.298	-176.6146
1650.000000	97.462	-177.2629
1675.000000	97.626	-177.9543
1700.000000	97.791	-178.6686
1725.000000	97.954	-179.4102
1750.000000	98.116	179.8129
1775.000000	98.276	178.9892
1800.000000	98.433	178.1141
1825.000000	98.584	177.1934
1850.000000	98.730	176.2263
1875.000000	98.868	175.2087
1900.000000	98.997	174.1371
1925.000000	99.117	173.0165
1950.000000	99.227	171.8536
1975.000000	99.325	170.6444
2000.000000	99.408	169.4084
2030.000000	99.489	167.9113
2060.000000	99.548	166.3889
2090.000000	99.587	164.8553
2120.000000	99.604	163.3488
2140.000000	99.605	162.3598
2180.000000	99.578	160.4396
2200.000000	99.552	159.5258
2240.000000	99.477	157.8027
2270.000000	99.404	156.6049
2300.000000	99.320	155.4972
2330.000000	99.226	154.4828
2360.000000	99.126	153.5567
2400.000000	98.984	152.4461
2430.000000	98.872	151.7073
2470.000000	98.719	150.8312
2500.000000	98.603	150.2430
2540.000000	98.448	149.5492
2580.000000	98.292	148.9622
2620.000000	98.139	148.4709
2650.000000	98.024	148.1491
2690.000000	97.871	147.7986
2720.000000	97.756	147.5919
2760.000000	97.606	147.3723
2800.000000	97.461	147.2258
2850.000000	97.287	147.1398
2900.000000	97.118	147.1653
2950.000000	96.958	147.3016
3000.000000	96.806	147.5073
3040.000000	96.686	147.7704
3070.000000	96.597	148.0132
3110.000000	96.484	148.3779
3150.000000	96.379	148.8016
3200.000000	96.258	149.4067
3250.000000	96.146	150.1012
3300.000000	96.046	150.8749
3350.000000	95.957	151.7139
3400.000000	95.882	152.6116
3450.000000	95.818	153.5662
3500.000000	95.767	154.5709
3550.000000	95.731	155.6087
3600.000000	95.709	156.6720
3650.000000	95.704	157.7473
3700.000000	95.713	158.8254
3750.000000	95.737	159.9016
3820.000000	95.796	161.3585
3870.000000	95.858	162.3512
3950.000000	95.986	163.8193
4000.000000	96.082	164.6425
4060.000000	96.211	165.5248
4120.000000	96.354	166.2701
4180.000000	96.511	166.8640
4250.000000	96.712	167.3445
4310.000000	96.898	167.5213
4370.000000	97.093	167.4186
4440.000000	97.322	166.8356
4500.000000	97.499	165.8541
4550.000000	97.611	164.6872
4620.000000	97.680	162.6054
4680.000000	97.628	160.6252
4750.000000	97.426	158.5145
4820.000000	97.094	157.0743
4870.000000	96.807	156.6192
4940.000000	96.387	156.7819
5000.000000	96.043	157.5475
5080.000000	95.639	159.2109
5150.000000	95.344	161.0526
5220.000000	95.100	163.0864
5300.000000	94.867	165.4995
5380.000000	94.658	167.9515
5450.000000	94.485	170.1634
5520.000000	94.317	172.4843
5600.000000	94.138	175.3098
5700.000000	93.943	179.0831
5800.000000	93.788	-176.9361
5900.000000	93.678	-172.8221
6000.000000	93.608	-168.6499
6080.000000	93.578	-165.3091
6150.000000	93.568	-162.4168
6220.000000	93.569	-159.5719
6300.000000	93.580	-156.3842
6400.000000	93.598	-152.4982
6500.000000	93.612	-148.7249
6600.000000	93.606	-145.0504
6700.000000	93.560	-141.3386
6800.000000	93.479	-137.3549
6900.000000	93.391	-132.9857
7000.000000	93.312	-128.2201
7100.000000	93.278	-123.0391
7200.000000	93.327	-117.5828
7300.000000	93.481	-112.1805
7400.000000	93.722	-107.1768
7500.000000	94.008	-102.7656
7620.000000	94.359	-98.2637
7750.000000	94.714	-94.2980
7880.000000	95.009	-91.2977
8000.000000	95.182	-89.4253
8120.000000	95.197	-88.3006
8250.000000	94.973	-87.4879
8380.000000	94.476	-86.3633
8500.000000	93.799	-84.4170
8620.000000	92.965	-81.1772
8750.000000	91.968	-76.0215
8850.000000	91.190	-70.9408
9000.000000	90.077	-61.8100
9120.000000	89.268	-53.4454
9250.000000	88.505	-43.6272
9380.000000	87.866	-33.3623
9500.000000	87.369	-23.7080
9620.000000	86.942	-13.9763
9750.000000	86.542	-3.3833
9880.000000	86.192	7.2482
10000.000000	85.906	17.0948
10150.000000	85.592	29.4605
10300.000000	85.320	41.9128
10440.000000	85.103	53.6310
10600.000000	84.901	67.1540
10750.000000	84.759	79.9535
10900.000000	84.671	92.8052
11060.000000	84.631	106.4608
11200.000000	84.627	118.3548
11380.000000	84.655	133.6631
11500.000000	84.698	143.9167
11720.000000	84.842	162.8614
11800.000000	84.923	169.7953
12060.000000	85.311	-167.6469
12200.000000	85.600	-155.5957
12410.000000	86.146	-137.9024
12500.000000	86.419	-130.5103
12650.000000	86.915	-118.5071
12800.000000	87.456	-106.9641
13150.000000	88.815	-82.1692
13200.000000	89.012	-78.9023
13400.000000	89.769	-66.5727
13600.000000	90.435	-55.3818
13800.000000	90.945	-45.0936
14000.000000	91.256	-35.2335
14300.000000	91.352	-19.8806
14500.000000	91.235	-8.4424
14750.000000	91.036	7.8251
15000.000000	90.998	26.1201
15250.000000	91.295	45.3472
15500.000000	91.949	64.1744
15750.000000	92.867	81.4078
16000.000000	93.844	96.4323
16250.000000	94.735	109.8488
16500.000000	95.582	122.3339
16750.000000	96.432	133.7126
17000.000000	97.236	143.4396
17250.000000	97.872	151.3356
17500.000000	98.234	157.8498
17750.000000	98.282	163.8876
18000.000000	98.059	170.4033
18250.000000	97.691	177.8999
18500.000000	97.348	-174.1190
18750.000000	97.084	-167.2203
19000.000000	96.702	-162.7584
19250.000000	95.885	-160.1373
19500.000000	94.466	-157.0411
19750.000000	92.612	-152.1922
