* Measurement data measured by REW V5.20.13
* Source: Primary Sound Capture Driver, no input selected, R, volume: no control
* Format: 256k Log Swept Sine, 1 sweep at -25.0 dBFS with no timing reference
* Dated: 31/10/2023 5:47:11 PM
* REW Settings:
*  C-weighting compensation: Off
*  Target level: 75.0 dB
* Note: ; 
* Measurement: 64 Audio U6t M12 L1
* Smoothing: 1/24 octave
* Frequency Step: 1/48 octave
* Start Frequency: 20.000 Hz
*
* Freq(Hz)	SPL(dB)	Phase(degrees)
20.000000	96.297	43.7063
20.299999	96.369	42.8959
20.600000	96.439	42.0944
20.900000	96.508	41.3004
21.200001	96.575	40.5126
21.400000	96.619	39.9901
21.799999	96.703	38.9513
22.000000	96.744	38.4356
22.400000	96.822	37.4140
22.700001	96.879	36.6595
23.000000	96.933	35.9169
23.299999	96.986	35.1863
23.600000	97.037	34.4658
24.000000	97.104	33.5170
24.299999	97.153	32.8115
24.700001	97.215	31.8781
25.000000	97.259	31.1848
25.400000	97.315	30.2729
25.799999	97.368	29.3779
26.200001	97.418	28.4993
26.500000	97.455	27.8492
26.900000	97.502	26.9916
27.200001	97.535	26.3542
27.600000	97.578	25.5122
28.000000	97.619	24.6801
28.500000	97.668	23.6544
29.000000	97.714	22.6431
29.500000	97.758	21.6431
30.000000	97.799	20.6530
30.400000	97.829	19.8687
30.700001	97.851	19.2860
31.100000	97.879	18.5182
31.500000	97.904	17.7622
32.000000	97.934	16.8354
32.500000	97.962	15.9276
33.000000	97.990	15.0341
33.500000	98.015	14.1510
34.000000	98.038	13.2779
34.500000	98.060	12.4172
35.000000	98.079	11.5696
35.500000	98.097	10.7324
36.000000	98.113	9.9024
36.500000	98.127	9.0798
37.000000	98.139	8.2688
37.500000	98.149	7.4725
38.200001	98.161	6.3833
38.700001	98.168	5.6222
39.500000	98.179	4.4279
40.000000	98.186	3.6901
40.599998	98.192	2.8087
41.200001	98.196	1.9362
41.799999	98.196	1.0828
42.500000	98.194	0.1176
43.099998	98.192	-0.6896
43.700001	98.190	-1.4891
44.400002	98.185	-2.4197
45.000000	98.178	-3.2092
45.500000	98.171	-3.8529
46.200001	98.161	-4.7351
46.799999	98.152	-5.4896
47.500000	98.138	-6.3669
48.200001	98.121	-7.2068
48.700001	98.110	-7.7781
49.400002	98.100	-8.5704
50.000000	98.093	-9.2680
50.799999	98.078	-10.2043
51.500000	98.061	-10.9961
52.200001	98.044	-11.7651
53.000000	98.024	-12.6329
53.799999	98.002	-13.4840
54.500000	97.981	-14.2095
55.200001	97.960	-14.9213
56.000000	97.935	-15.7240
57.000000	97.904	-16.7138
58.000000	97.871	-17.6896
59.000000	97.836	-18.6496
60.000000	97.801	-19.5870
60.799999	97.772	-20.3217
61.500000	97.746	-20.9544
62.200001	97.721	-21.5781
63.000000	97.691	-22.2805
64.000000	97.653	-23.1420
65.000000	97.614	-23.9835
66.000000	97.575	-24.8100
67.000000	97.535	-25.6237
68.000000	97.495	-26.4237
69.000000	97.455	-27.2096
70.000000	97.414	-27.9839
71.000000	97.373	-28.7460
72.000000	97.331	-29.4899
73.000000	97.289	-30.2151
74.000000	97.246	-30.9238
75.000000	97.205	-31.6202
76.199997	97.156	-32.4492
77.500000	97.101	-33.3359
78.800003	97.046	-34.2036
80.000000	96.995	-34.9882
81.199997	96.944	-35.7579
82.500000	96.889	-36.5747
83.800003	96.834	-37.3684
85.000000	96.784	-38.0837
86.199997	96.734	-38.7889
87.500000	96.679	-39.5407
88.500000	96.637	-40.1088
90.000000	96.575	-40.9454
91.199997	96.525	-41.6029
92.500000	96.472	-42.3043
93.800003	96.418	-42.9922
95.000000	96.368	-43.6148
96.199997	96.318	-44.2246
97.500000	96.265	-44.8662
98.800003	96.215	-45.5023
100.000000	96.168	-46.0897
101.500000	96.109	-46.8107
103.000000	96.051	-47.5154
104.400002	95.997	-48.1655
106.000000	95.934	-48.8935
107.500000	95.877	-49.5585
109.000000	95.821	-50.2094
110.599998	95.762	-50.8881
112.000000	95.711	-51.4701
113.800003	95.646	-52.2084
115.000000	95.603	-52.6937
117.199997	95.525	-53.5672
118.000000	95.497	-53.8806
120.599998	95.408	-54.8848
122.000000	95.361	-55.4117
124.099998	95.290	-56.1833
125.000000	95.260	-56.5092
126.500000	95.211	-57.0482
128.000000	95.163	-57.5818
131.500000	95.052	-58.7959
132.000000	95.037	-58.9651
134.000000	94.976	-59.6335
136.000000	94.916	-60.2909
138.000000	94.857	-60.9382
140.000000	94.798	-61.5742
143.000000	94.714	-62.5037
145.000000	94.661	-63.1035
147.500000	94.595	-63.8423
150.000000	94.528	-64.5799
152.500000	94.463	-65.3013
155.000000	94.400	-66.0045
157.500000	94.339	-66.6923
160.000000	94.279	-67.3672
162.500000	94.221	-68.0334
165.000000	94.165	-68.6916
167.500000	94.110	-69.3401
170.000000	94.057	-69.9758
172.500000	94.005	-70.5981
175.000000	93.954	-71.2072
177.500000	93.905	-71.8062
180.000000	93.857	-72.4005
182.500000	93.811	-72.9875
185.000000	93.765	-73.5652
187.500000	93.721	-74.1365
190.000000	93.679	-74.7005
192.500000	93.637	-75.2560
195.000000	93.597	-75.8017
197.500000	93.558	-76.3389
200.000000	93.520	-76.8700
203.000000	93.475	-77.5007
206.000000	93.433	-78.1248
209.000000	93.393	-78.7421
212.000000	93.353	-79.3477
214.000000	93.328	-79.7451
218.000000	93.278	-80.5305
220.000000	93.254	-80.9191
224.000000	93.208	-81.6847
227.000000	93.175	-82.2513
230.000000	93.143	-82.8145
233.000000	93.113	-83.3741
236.000000	93.083	-83.9263
240.000000	93.046	-84.6474
243.000000	93.019	-85.1796
247.000000	92.984	-85.8805
250.000000	92.960	-86.4003
254.000000	92.928	-87.0882
258.000000	92.897	-87.7691
262.000000	92.868	-88.4392
265.000000	92.847	-88.9351
269.000000	92.820	-89.5864
272.000000	92.800	-90.0675
276.000000	92.775	-90.6992
280.000000	92.750	-91.3188
285.000000	92.720	-92.0763
290.000000	92.690	-92.8104
295.000000	92.662	-93.5178
300.000000	92.635	-94.1880
304.000000	92.616	-94.6862
307.000000	92.603	-95.0345
311.000000	92.591	-95.4656
315.000000	92.587	-95.8647
320.000000	92.600	-96.3564
325.000000	92.630	-96.9135
330.000000	92.669	-97.5890
335.000000	92.703	-98.3810
340.000000	92.726	-99.2468
345.000000	92.736	-100.1292
350.000000	92.738	-100.9889
355.000000	92.734	-101.8132
360.000000	92.728	-102.6030
365.000000	92.722	-103.3658
370.000000	92.715	-104.1035
375.000000	92.708	-104.8226
382.000000	92.699	-105.8099
387.000000	92.693	-106.5017
395.000000	92.684	-107.5859
400.000000	92.679	-108.2501
406.000000	92.673	-109.0367
412.000000	92.666	-109.8107
418.000000	92.659	-110.5717
425.000000	92.651	-111.4425
431.000000	92.645	-112.1824
437.000000	92.638	-112.9166
444.000000	92.629	-113.7615
450.000000	92.621	-114.4765
455.000000	92.614	-115.0647
462.000000	92.602	-115.8719
468.000000	92.592	-116.5468
475.000000	92.578	-117.3179
482.000000	92.564	-118.0742
487.000000	92.554	-118.6054
494.000000	92.538	-119.3410
500.000000	92.524	-119.9625
508.000000	92.505	-120.7692
515.000000	92.487	-121.4553
522.000000	92.469	-122.1288
530.000000	92.447	-122.8818
538.000000	92.423	-123.6110
545.000000	92.401	-124.2305
552.000000	92.377	-124.8336
560.000000	92.349	-125.5007
570.000000	92.314	-126.3057
580.000000	92.277	-127.0782
590.000000	92.238	-127.8153
600.000000	92.198	-128.5101
608.000000	92.166	-129.0414
615.000000	92.137	-129.4889
622.000000	92.107	-129.9189
630.000000	92.073	-130.3890
640.000000	92.029	-130.9435
650.000000	91.984	-131.4616
660.000000	91.939	-131.9424
670.000000	91.894	-132.3881
680.000000	91.850	-132.7986
690.000000	91.806	-133.1754
700.000000	91.764	-133.5183
710.000000	91.722	-133.8291
720.000000	91.681	-134.1077
730.000000	91.641	-134.3542
740.000000	91.602	-134.5715
750.000000	91.563	-134.7621
762.000000	91.518	-134.9507
775.000000	91.472	-135.1016
788.000000	91.431	-135.1997
800.000000	91.397	-135.2469
812.000000	91.367	-135.2551
825.000000	91.340	-135.2260
838.000000	91.318	-135.1646
850.000000	91.301	-135.0802
862.000000	91.290	-134.9703
875.000000	91.283	-134.8239
885.000000	91.281	-134.6943
900.000000	91.286	-134.4750
912.000000	91.296	-134.2800
925.000000	91.315	-134.0538
938.000000	91.340	-133.8211
950.000000	91.370	-133.6097
962.000000	91.405	-133.4069
975.000000	91.448	-133.2007
988.000000	91.495	-133.0101
1000.000000	91.542	-132.8457
1015.000000	91.606	-132.6548
1030.000000	91.675	-132.4818
1044.000000	91.743	-132.3406
1060.000000	91.826	-132.2064
1075.000000	91.907	-132.1084
1090.000000	91.990	-132.0400
1106.000000	92.081	-131.9988
1120.000000	92.161	-131.9880
1138.000000	92.264	-132.0089
1150.000000	92.332	-132.0423
1172.000000	92.456	-132.1388
1180.000000	92.501	-132.1846
1206.000000	92.646	-132.3655
1220.000000	92.722	-132.4785
1241.000000	92.833	-132.6647
1250.000000	92.879	-132.7488
1265.000000	92.955	-132.8914
1280.000000	93.029	-133.0360
1315.000000	93.197	-133.3727
1320.000000	93.220	-133.4192
1340.000000	93.313	-133.6006
1360.000000	93.405	-133.7733
1380.000000	93.497	-133.9362
1400.000000	93.590	-134.0925
1430.000000	93.730	-134.3126
1450.000000	93.825	-134.4467
1475.000000	93.946	-134.6033
1500.000000	94.070	-134.7533
1525.000000	94.199	-134.9039
1550.000000	94.333	-135.0565
1575.000000	94.473	-135.2207
1600.000000	94.618	-135.4021
1625.000000	94.767	-135.6080
1650.000000	94.922	-135.8455
1675.000000	95.082	-136.1184
1700.000000	95.245	-136.4343
1725.000000	95.411	-136.7968
1750.000000	95.582	-137.2085
1775.000000	95.754	-137.6771
1800.000000	95.927	-138.2053
1825.000000	96.101	-138.7985
1850.000000	96.274	-139.4604
1875.000000	96.446	-140.1903
1900.000000	96.614	-140.9892
1925.000000	96.778	-141.8586
1950.000000	96.936	-142.7957
1975.000000	97.087	-143.7957
2000.000000	97.230	-144.8546
2030.000000	97.390	-146.1948
2060.000000	97.535	-147.6014
2090.000000	97.665	-149.0640
2120.000000	97.778	-150.5658
2140.000000	97.844	-151.5797
2180.000000	97.953	-153.6217
2200.000000	97.997	-154.6408
2240.000000	98.063	-156.6561
2270.000000	98.095	-158.1336
2300.000000	98.115	-159.5663
2330.000000	98.123	-160.9496
2360.000000	98.120	-162.2832
2400.000000	98.103	-163.9787
2430.000000	98.083	-165.1821
2470.000000	98.050	-166.6936
2500.000000	98.022	-167.7595
2540.000000	97.983	-169.0979
2580.000000	97.944	-170.3558
2620.000000	97.908	-171.5457
2650.000000	97.883	-172.4025
2690.000000	97.854	-173.5107
2720.000000	97.834	-174.3230
2760.000000	97.810	-175.3905
2800.000000	97.788	-176.4492
2850.000000	97.761	-177.7643
2900.000000	97.731	-179.0678
2950.000000	97.697	179.6547
3000.000000	97.657	178.4250
3040.000000	97.622	177.4877
3070.000000	97.595	176.8174
3110.000000	97.560	175.9683
3150.000000	97.527	175.1661
3200.000000	97.491	174.2203
3250.000000	97.463	173.3208
3300.000000	97.444	172.4472
3350.000000	97.435	171.5808
3400.000000	97.433	170.7065
3450.000000	97.438	169.8105
3500.000000	97.450	168.8845
3550.000000	97.468	167.9214
3600.000000	97.489	166.9150
3650.000000	97.514	165.8603
3700.000000	97.541	164.7524
3750.000000	97.570	163.5882
3820.000000	97.609	161.8624
3870.000000	97.636	160.5598
3950.000000	97.676	158.3585
4000.000000	97.697	156.9086
4060.000000	97.719	155.0906
4120.000000	97.737	153.1775
4180.000000	97.749	151.1540
4250.000000	97.750	148.6489
4310.000000	97.736	146.3877
4370.000000	97.709	144.0329
4440.000000	97.658	141.1798
4500.000000	97.601	138.6379
4550.000000	97.545	136.4314
4620.000000	97.453	133.1506
4680.000000	97.355	130.0865
4750.000000	97.198	126.1140
4820.000000	96.956	121.6816
4870.000000	96.700	118.3287
4940.000000	96.191	113.7291
5000.000000	95.612	110.3232
5080.000000	94.688	107.2074
5150.000000	93.835	106.0308
5220.000000	93.033	106.0990
5300.000000	92.251	107.1576
5380.000000	91.615	108.6533
5450.000000	91.145	110.1982
5520.000000	90.774	112.0427
5600.000000	90.545	114.0267
5700.000000	90.486	114.1611
5800.000000	89.975	111.6367
5900.000000	88.976	112.8237
6000.000000	88.310	116.6295
6080.000000	88.004	119.5980
6150.000000	87.809	121.9923
6220.000000	87.655	124.2826
6300.000000	87.521	126.8422
6400.000000	87.414	129.9943
6500.000000	87.372	133.0925
6600.000000	87.399	136.1199
6700.000000	87.492	139.0386
6800.000000	87.649	141.7967
6900.000000	87.868	144.3438
7000.000000	88.145	146.6263
7100.000000	88.473	148.5876
7200.000000	88.847	150.1782
7300.000000	89.262	151.3333
7400.000000	89.704	151.9167
7500.000000	90.143	151.8613
7620.000000	90.631	150.9941
7750.000000	91.066	149.1513
7880.000000	91.353	146.6147
8000.000000	91.460	144.0464
8120.000000	91.420	141.6537
8250.000000	91.243	139.5734
8380.000000	90.962	138.2086
8500.000000	90.641	137.6907
8620.000000	90.295	137.9298
8750.000000	89.928	138.9916
8850.000000	89.672	140.3018
9000.000000	89.351	142.9153
9120.000000	89.162	145.4389
9250.000000	89.032	148.4962
9380.000000	88.988	151.8156
9500.000000	89.041	154.9932
9620.000000	89.182	158.1182
9750.000000	89.430	161.3558
9880.000000	89.781	164.3333
10000.000000	90.197	166.7103
10150.000000	90.836	168.9347
10300.000000	91.587	169.9742
10440.000000	92.339	169.4737
10600.000000	93.142	166.7286
10750.000000	93.689	161.9865
10900.000000	93.886	155.7802
11060.000000	93.628	149.0571
11200.000000	93.041	144.4656
11380.000000	91.968	141.5238
11500.000000	91.175	141.5070
11720.000000	89.790	144.9042
11800.000000	89.348	147.0370
12060.000000	88.270	156.1693
12200.000000	87.947	161.8715
12410.000000	87.804	170.5416
12500.000000	87.859	174.0673
12650.000000	88.080	179.3731
12800.000000	88.416	-176.3433
13150.000000	89.194	-171.3756
13200.000000	89.259	-171.1946
13400.000000	89.316	-171.1680
13600.000000	89.034	-171.1898
13800.000000	88.484	-170.1011
14000.000000	87.802	-167.4025
14300.000000	86.838	-160.8221
14500.000000	86.321	-155.8008
14750.000000	85.736	-148.9485
15000.000000	85.356	-141.4633
15250.000000	85.224	-134.7053
15500.000000	85.186	-129.6765
15750.000000	84.942	-126.3082
16000.000000	84.243	-121.3741
16250.000000	83.654	-110.7249
16500.000000	84.399	-97.9001
16750.000000	86.222	-90.8881
17000.000000	88.064	-93.1381
17250.000000	89.197	-104.3879
17500.000000	89.125	-120.8248
17750.000000	87.774	-135.2430
18000.000000	85.577	-143.0242
18250.000000	83.158	-144.8190
18500.000000	80.949	-143.0567
18750.000000	79.138	-139.6883
19000.000000	77.789	-136.5271
19250.000000	76.788	-135.0005
19500.000000	75.934	-135.3417
19750.000000	75.177	-136.8380
