* Measurement data measured by REW V5.20.9
* Source: Input device not selected, no input selected, R, volume: no control
* Format: 256k Log Swept Sine, 1 sweep at 0.0 dBFS with no timing reference
* Dated: 06/10/2022 2:59:39 PM
* REW Settings:
*  C-weighting compensation: Off
*  Target level: 75.0 dB
* Note: ; 
* Measurement: EE + A&K Odyssey L
* Smoothing: 1/24 octave
* Frequency Step: 1/48 octave
* Start Frequency: 20.000 Hz
*
* Freq(Hz)	SPL(dB)	Phase(degrees)
20.000000	97.564	178.5432
20.299999	97.536	178.0064
20.600000	97.508	177.5508
20.900000	97.487	177.1775
21.200001	97.480	176.8439
21.400000	97.484	176.5997
21.799999	97.504	175.9963
22.000000	97.512	175.6234
22.400000	97.508	174.7711
22.700001	97.482	174.1336
23.000000	97.440	173.5972
23.299999	97.396	173.1986
23.600000	97.360	172.9086
24.000000	97.339	172.5757
24.299999	97.338	172.2609
24.700001	97.340	171.6866
25.000000	97.332	171.1690
25.400000	97.299	170.4605
25.799999	97.250	169.8233
26.200001	97.198	169.2644
26.500000	97.158	168.8692
26.900000	97.100	168.3654
27.200001	97.051	168.0385
27.600000	96.983	167.7379
28.000000	96.933	167.6110
28.500000	96.925	167.5183
29.000000	96.966	167.1471
29.500000	97.003	166.3493
30.000000	96.988	165.3569
30.400000	96.940	164.6680
30.700001	96.895	164.2791
31.100000	96.845	163.9004
31.500000	96.811	163.5834
32.000000	96.786	163.1327
32.500000	96.759	162.5947
33.000000	96.720	162.0533
33.500000	96.677	161.5630
34.000000	96.635	161.0981
34.500000	96.593	160.6190
35.000000	96.545	160.1409
35.500000	96.493	159.7148
36.000000	96.446	159.3503
36.500000	96.411	158.9900
37.000000	96.383	158.5645
37.500000	96.350	158.0720
38.200001	96.288	157.4023
38.700001	96.242	157.0094
39.500000	96.182	156.4732
40.000000	96.153	156.1532
40.599998	96.123	155.7938
41.200001	96.104	155.4392
41.799999	96.092	155.0157
42.500000	96.064	154.4334
43.099998	96.024	153.9672
43.700001	95.980	153.5714
44.400002	95.929	153.1398
45.000000	95.881	152.7895
45.500000	95.842	152.5309
46.200001	95.797	152.1594
46.799999	95.760	151.7571
47.500000	95.701	151.2616
48.200001	95.638	150.8718
48.700001	95.604	150.6268
49.400002	95.567	150.2134
50.000000	95.531	149.7995
50.799999	95.477	149.2705
51.500000	95.430	148.8301
52.200001	95.382	148.3875
53.000000	95.327	147.9101
53.799999	95.275	147.4213
54.500000	95.226	146.9480
55.200001	95.168	146.4928
56.000000	95.102	146.0471
57.000000	95.033	145.5101
58.000000	94.966	144.9479
59.000000	94.901	144.4815
60.000000	94.858	144.0256
60.799999	94.819	143.5482
61.500000	94.766	143.1400
62.200001	94.702	142.8472
63.000000	94.638	142.6151
64.000000	94.571	142.2955
65.000000	94.503	141.9073
66.000000	94.431	141.4945
67.000000	94.358	141.0873
68.000000	94.292	140.7142
69.000000	94.234	140.3387
70.000000	94.178	139.9767
71.000000	94.126	139.6215
72.000000	94.070	139.2540
73.000000	94.009	138.9183
74.000000	93.950	138.5908
75.000000	93.890	138.2369
76.199997	93.816	137.8188
77.500000	93.740	137.3741
78.800003	93.666	136.9318
80.000000	93.600	136.5360
81.199997	93.529	136.1534
82.500000	93.456	135.7692
83.800003	93.381	135.3541
85.000000	93.311	134.9884
86.199997	93.244	134.6259
87.500000	93.171	134.2368
88.500000	93.113	133.9670
90.000000	93.033	133.5880
91.199997	92.969	133.2566
92.500000	92.897	132.9031
93.800003	92.827	132.5800
95.000000	92.766	132.3005
96.199997	92.706	132.0485
97.500000	92.644	131.8745
98.800003	92.604	131.7010
100.000000	92.565	131.3466
101.500000	92.472	130.8555
103.000000	92.370	130.5463
104.400002	92.291	130.2794
106.000000	92.209	129.9509
107.500000	92.137	129.6595
109.000000	92.069	129.3705
110.599998	91.994	129.0713
112.000000	91.928	128.8193
113.800003	91.844	128.4994
115.000000	91.789	128.2978
117.199997	91.692	127.9639
118.000000	91.657	127.8459
120.599998	91.541	127.4717
122.000000	91.477	127.2886
124.099998	91.388	127.0549
125.000000	91.352	126.9698
126.500000	91.295	126.8481
128.000000	91.237	126.7435
131.500000	91.099	126.5202
132.000000	91.080	126.4935
134.000000	91.009	126.4349
136.000000	90.953	126.4626
138.000000	90.912	126.5636
140.000000	90.890	126.7209
143.000000	90.922	126.9618
145.000000	90.999	127.0085
147.500000	91.144	126.6127
150.000000	91.275	125.3207
152.500000	91.320	123.2559
155.000000	91.242	121.0763
157.500000	91.065	119.4785
160.000000	90.851	118.4403
162.500000	90.645	117.7015
165.000000	90.467	117.1719
167.500000	90.314	116.8530
170.000000	90.172	116.6326
172.500000	90.040	116.4156
175.000000	89.923	116.1708
177.500000	89.817	115.9454
180.000000	89.719	115.7415
182.500000	89.624	115.5316
185.000000	89.535	115.3173
187.500000	89.450	115.1068
190.000000	89.368	114.9103
192.500000	89.288	114.7186
195.000000	89.210	114.5139
197.500000	89.135	114.2987
200.000000	89.063	114.0855
203.000000	88.979	113.8467
206.000000	88.899	113.6143
209.000000	88.819	113.3705
212.000000	88.740	113.1190
214.000000	88.691	112.9517
218.000000	88.596	112.6062
220.000000	88.550	112.4290
224.000000	88.460	112.0770
227.000000	88.395	111.8036
230.000000	88.332	111.5208
233.000000	88.270	111.2339
236.000000	88.207	110.9399
240.000000	88.121	110.5282
243.000000	88.054	110.2126
247.000000	87.962	109.7984
250.000000	87.895	109.5029
254.000000	87.808	109.1326
258.000000	87.722	108.7845
262.000000	87.636	108.4442
265.000000	87.573	108.1806
269.000000	87.490	107.8250
272.000000	87.432	107.5665
276.000000	87.357	107.2331
280.000000	87.280	106.8886
285.000000	87.182	106.4258
290.000000	87.087	105.9535
295.000000	86.996	105.4805
300.000000	86.904	104.9834
304.000000	86.825	104.5760
307.000000	86.763	104.2708
311.000000	86.675	103.8682
315.000000	86.583	103.4674
320.000000	86.463	102.9670
325.000000	86.342	102.4527
330.000000	86.214	101.9136
335.000000	86.072	101.3485
340.000000	85.907	100.7606
345.000000	85.711	100.2050
350.000000	85.475	99.7850
355.000000	85.197	99.6574
360.000000	84.904	100.0318
365.000000	84.643	101.0214
370.000000	84.462	102.5010
375.000000	84.377	104.1100
382.000000	84.372	105.9221
387.000000	84.404	106.7810
395.000000	84.444	107.6896
400.000000	84.451	108.1732
406.000000	84.460	108.8476
412.000000	84.488	109.5991
418.000000	84.546	110.3277
425.000000	84.653	111.0089
431.000000	84.762	111.4166
437.000000	84.886	111.6753
444.000000	85.041	111.6653
450.000000	85.152	111.2407
455.000000	85.172	110.6868
462.000000	85.048	110.8448
468.000000	85.042	112.8870
475.000000	85.536	115.6071
482.000000	86.347	115.5515
487.000000	86.882	113.4817
494.000000	87.377	108.5326
500.000000	87.469	103.4855
508.000000	87.109	97.9340
515.000000	86.550	95.5578
522.000000	86.044	95.1279
530.000000	85.681	95.5285
538.000000	85.471	95.9136
545.000000	85.331	96.1021
552.000000	85.214	96.2410
560.000000	85.105	96.4068
570.000000	84.999	96.6100
580.000000	84.919	96.7177
590.000000	84.847	96.7556
600.000000	84.779	96.8083
608.000000	84.734	96.8738
615.000000	84.700	96.9395
622.000000	84.672	97.0077
630.000000	84.647	97.0806
640.000000	84.621	97.1250
650.000000	84.603	97.1037
660.000000	84.582	97.0435
670.000000	84.554	96.9860
680.000000	84.522	96.9705
690.000000	84.491	97.0119
700.000000	84.464	97.0900
710.000000	84.441	97.1955
720.000000	84.424	97.3381
730.000000	84.415	97.4883
740.000000	84.406	97.6196
750.000000	84.398	97.7776
762.000000	84.395	98.0191
775.000000	84.403	98.2870
788.000000	84.418	98.5427
800.000000	84.438	98.7588
812.000000	84.465	99.0007
825.000000	84.497	99.3128
838.000000	84.531	99.6284
850.000000	84.569	99.9243
862.000000	84.615	100.2168
875.000000	84.671	100.5127
885.000000	84.717	100.7486
900.000000	84.791	101.1264
912.000000	84.857	101.4268
925.000000	84.934	101.7356
938.000000	85.017	102.0145
950.000000	85.100	102.2544
962.000000	85.188	102.4930
975.000000	85.285	102.7451
988.000000	85.386	102.9789
1000.000000	85.482	103.1674
1015.000000	85.608	103.3639
1030.000000	85.738	103.5356
1044.000000	85.863	103.6771
1060.000000	86.009	103.8023
1075.000000	86.148	103.8762
1090.000000	86.289	103.9163
1106.000000	86.442	103.9388
1120.000000	86.576	103.9361
1138.000000	86.747	103.8910
1150.000000	86.862	103.8475
1172.000000	87.076	103.7453
1180.000000	87.154	103.6981
1206.000000	87.413	103.5175
1220.000000	87.558	103.3977
1241.000000	87.782	103.1594
1250.000000	87.880	103.0255
1265.000000	88.045	102.7569
1280.000000	88.211	102.4383
1315.000000	88.589	101.4559
1320.000000	88.641	101.2921
1340.000000	88.843	100.5939
1360.000000	89.033	99.8416
1380.000000	89.212	99.0505
1400.000000	89.378	98.2448
1430.000000	89.611	97.0746
1450.000000	89.758	96.3016
1475.000000	89.938	95.3230
1500.000000	90.114	94.3635
1525.000000	90.283	93.4295
1550.000000	90.452	92.5081
1575.000000	90.625	91.5581
1600.000000	90.797	90.5919
1625.000000	90.968	89.6178
1650.000000	91.133	88.5912
1675.000000	91.295	87.4952
1700.000000	91.454	86.3732
1725.000000	91.609	85.2380
1750.000000	91.760	84.0825
1775.000000	91.908	82.8975
1800.000000	92.053	81.6770
1825.000000	92.195	80.4243
1850.000000	92.332	79.1422
1875.000000	92.463	77.8260
1900.000000	92.590	76.4679
1925.000000	92.712	75.0707
1950.000000	92.831	73.6360
1975.000000	92.944	72.1534
2000.000000	93.048	70.6381
2030.000000	93.161	68.7956
2060.000000	93.260	66.9019
2090.000000	93.349	64.9523
2120.000000	93.426	62.9720
2140.000000	93.469	61.6334
2180.000000	93.532	58.9290
2200.000000	93.552	57.5764
2240.000000	93.569	54.8742
2270.000000	93.564	52.8554
2300.000000	93.545	50.8734
2330.000000	93.509	48.9558
2360.000000	93.458	47.1193
2400.000000	93.375	44.8355
2430.000000	93.311	43.2755
2470.000000	93.240	41.3501
2500.000000	93.206	39.9242
2540.000000	93.181	37.8844
2580.000000	93.148	35.6343
2620.000000	93.089	33.2742
2650.000000	93.024	31.4986
2690.000000	92.915	29.2009
2720.000000	92.824	27.5314
2760.000000	92.696	25.3304
2800.000000	92.561	23.1364
2850.000000	92.373	20.3671
2900.000000	92.145	17.5546
2950.000000	91.861	14.7551
3000.000000	91.505	12.1248
3040.000000	91.160	10.3871
3070.000000	90.875	9.3878
3110.000000	90.481	8.5223
3150.000000	90.104	8.2043
3200.000000	89.697	8.4321
3250.000000	89.386	9.0805
3300.000000	89.169	9.8282
3350.000000	89.022	10.4731
3400.000000	88.920	10.9445
3450.000000	88.839	11.2816
3500.000000	88.769	11.5610
3550.000000	88.709	11.8428
3600.000000	88.662	12.1573
3650.000000	88.632	12.5028
3700.000000	88.620	12.8788
3750.000000	88.625	13.3018
3820.000000	88.667	13.9553
3870.000000	88.733	14.4464
3950.000000	88.912	15.1293
4000.000000	89.069	15.3927
4060.000000	89.290	15.4322
4120.000000	89.535	15.0942
4180.000000	89.784	14.3501
4250.000000	90.060	12.9694
4310.000000	90.264	11.3274
4370.000000	90.418	9.2788
4440.000000	90.502	6.4778
4500.000000	90.471	3.8826
4550.000000	90.362	1.7334
4620.000000	90.082	-1.0001
4680.000000	89.737	-2.8403
4750.000000	89.245	-4.1575
4820.000000	88.699	-4.4492
4870.000000	88.295	-4.0067
4940.000000	87.748	-2.4831
5000.000000	87.327	-0.4085
5080.000000	86.867	3.2672
5150.000000	86.583	7.1775
5220.000000	86.433	11.5538
5300.000000	86.451	16.8442
5380.000000	86.677	22.0780
5450.000000	87.035	26.2996
5520.000000	87.522	29.9322
5600.000000	88.200	33.1235
5700.000000	89.145	35.3709
5800.000000	90.084	35.5060
5900.000000	90.894	33.6793
6000.000000	91.476	30.3637
6080.000000	91.735	27.1682
6150.000000	91.812	24.3886
6220.000000	91.770	21.9474
6300.000000	91.624	19.8163
6400.000000	91.372	18.1781
6500.000000	91.110	17.5228
6600.000000	90.888	17.6110
6700.000000	90.733	18.1650
6800.000000	90.650	18.9344
6900.000000	90.630	19.7821
7000.000000	90.670	20.6126
7100.000000	90.775	21.3163
7200.000000	90.943	21.7802
7300.000000	91.165	21.8746
7400.000000	91.426	21.5270
7500.000000	91.716	20.7195
7620.000000	92.095	18.9948
7750.000000	92.492	15.9686
7880.000000	92.800	11.8022
8000.000000	92.954	7.2030
8120.000000	92.950	2.2971
8250.000000	92.771	-2.8271
8380.000000	92.449	-7.2505
8500.000000	92.080	-10.4509
8620.000000	91.701	-12.7578
8750.000000	91.334	-14.3693
8850.000000	91.112	-15.1207
9000.000000	90.911	-15.7689
9120.000000	90.873	-16.1963
9250.000000	90.948	-16.9405
9380.000000	91.108	-18.3264
9500.000000	91.280	-20.4344
9620.000000	91.408	-23.4564
9750.000000	91.411	-27.6383
9880.000000	91.201	-32.3065
10000.000000	90.787	-36.4303
10150.000000	89.991	-40.4365
10300.000000	88.971	-42.4362
10440.000000	87.929	-42.2202
10600.000000	86.770	-39.6496
10750.000000	85.826	-35.4596
10900.000000	85.094	-30.1885
11060.000000	84.579	-24.1390
11200.000000	84.339	-19.0724
11380.000000	84.241	-13.5865
11500.000000	84.242	-10.8453
11720.000000	84.205	-7.8477
11800.000000	84.140	-7.2932
12060.000000	83.640	-6.3948
12200.000000	83.179	-5.9025
12410.000000	82.300	-4.4773
12500.000000	81.879	-3.4976
12650.000000	81.156	-1.3324
12800.000000	80.448	1.4291
13150.000000	79.078	9.3406
13200.000000	78.935	10.5253
13400.000000	78.544	15.0037
13600.000000	78.442	18.7128
13800.000000	78.644	21.2147
14000.000000	79.153	22.0405
14300.000000	80.357	19.1491
14500.000000	81.235	14.0144
14750.000000	82.058	4.5535
15000.000000	82.323	-5.7821
15250.000000	82.067	-13.8198
15500.000000	81.553	-18.2462
15750.000000	81.004	-19.9039
16000.000000	80.423	-20.1309
16250.000000	79.664	-19.2197
16500.000000	78.683	-16.5147
16750.000000	77.556	-12.0095
17000.000000	76.246	-5.8466
17250.000000	74.671	3.2794
17500.000000	73.011	16.9717
17750.000000	71.830	34.2851
18000.000000	71.575	50.3745
18250.000000	71.691	59.5426
18500.000000	70.973	62.5604
18750.000000	68.591	73.2880
19000.000000	65.343	102.4986
19250.000000	64.105	134.4578
19500.000000	64.249	157.2659
19750.000000	64.174	174.8572
