* Measurement data measured by REW V5.20.9
* Source: Input device not selected, no input selected, R, volume: no control
* Format: 256k Log Swept Sine, 1 sweep at 0.0 dBFS with no timing reference
* Dated: 06/10/2022 2:59:16 PM
* REW Settings:
*  C-weighting compensation: Off
*  Target level: 75.0 dB
* Note: ; 
* Measurement: EE + A&K Odyssey R
* Smoothing: 1/24 octave
* Frequency Step: 1/48 octave
* Start Frequency: 20.000 Hz
*
* Freq(Hz)	SPL(dB)	Phase(degrees)
20.000000	96.472	-172.6273
20.299999	96.456	-173.2023
20.600000	96.435	-173.7175
20.900000	96.414	-174.1636
21.200001	96.401	-174.5546
21.400000	96.397	-174.8062
21.799999	96.403	-175.3339
22.000000	96.409	-175.6308
22.400000	96.421	-176.3124
22.700001	96.423	-176.8821
23.000000	96.415	-177.4631
23.299999	96.398	-178.0161
23.600000	96.376	-178.5193
24.000000	96.348	-179.1074
24.299999	96.333	-179.5098
24.700001	96.320	179.9594
25.000000	96.315	179.5406
25.400000	96.307	178.9479
25.799999	96.295	178.3383
26.200001	96.277	177.7438
26.500000	96.261	177.3203
26.900000	96.240	176.7891
27.200001	96.225	176.4128
27.600000	96.207	175.9325
28.000000	96.192	175.4656
28.500000	96.178	174.8781
29.000000	96.165	174.2644
29.500000	96.147	173.6308
30.000000	96.123	173.0110
30.400000	96.101	172.5433
30.700001	96.085	172.2074
31.100000	96.065	171.7673
31.500000	96.046	171.3265
32.000000	96.021	170.7767
32.500000	95.994	170.2473
33.000000	95.970	169.7411
33.500000	95.950	169.2333
34.000000	95.931	168.7045
34.500000	95.907	168.1732
35.000000	95.880	167.6730
35.500000	95.855	167.2112
36.000000	95.834	166.7589
36.500000	95.814	166.2925
37.000000	95.789	165.8231
37.500000	95.761	165.3801
38.200001	95.723	164.8141
38.700001	95.698	164.4136
39.500000	95.656	163.7397
40.000000	95.625	163.3303
40.599998	95.589	162.8762
41.200001	95.560	162.4209
41.799999	95.534	161.9120
42.500000	95.494	161.2772
43.099998	95.452	160.7756
43.700001	95.413	160.3363
44.400002	95.375	159.8652
45.000000	95.349	159.4670
45.500000	95.329	159.1226
46.200001	95.297	158.6205
46.799999	95.259	158.2421
47.500000	95.220	157.9554
48.200001	95.215	157.6768
48.700001	95.223	157.3159
49.400002	95.206	156.5809
50.000000	95.153	155.9772
50.799999	95.069	155.4461
51.500000	95.017	155.0784
52.200001	94.975	154.6461
53.000000	94.923	154.1459
53.799999	94.879	153.6744
54.500000	94.845	153.2225
55.200001	94.804	152.7629
56.000000	94.754	152.3113
57.000000	94.702	151.7963
58.000000	94.650	151.2369
59.000000	94.588	150.7292
60.000000	94.536	150.2659
60.799999	94.501	149.8554
61.500000	94.469	149.4578
62.200001	94.432	149.0432
63.000000	94.383	148.6042
64.000000	94.326	148.1749
65.000000	94.289	147.7487
66.000000	94.247	147.1996
67.000000	94.182	146.6992
68.000000	94.120	146.3171
69.000000	94.067	145.9142
70.000000	94.012	145.4745
71.000000	93.956	145.0427
72.000000	93.903	144.6084
73.000000	93.850	144.1796
74.000000	93.799	143.7697
75.000000	93.749	143.3663
76.199997	93.689	142.8945
77.500000	93.624	142.3990
78.800003	93.558	141.9133
80.000000	93.498	141.4672
81.199997	93.437	141.0265
82.500000	93.371	140.5668
83.800003	93.307	140.1048
85.000000	93.247	139.6805
86.199997	93.189	139.2700
87.500000	93.127	138.8316
88.500000	93.081	138.5090
90.000000	93.011	138.0450
91.199997	92.953	137.6838
92.500000	92.886	137.2896
93.800003	92.818	136.8746
95.000000	92.759	136.4555
96.199997	92.703	135.9915
97.500000	92.641	135.4804
98.800003	92.579	135.0545
100.000000	92.522	134.7713
101.500000	92.461	134.5831
103.000000	92.413	134.3688
104.400002	92.359	134.0858
106.000000	92.288	133.6950
107.500000	92.219	133.2960
109.000000	92.154	132.9030
110.599998	92.087	132.5069
112.000000	92.029	132.1870
113.800003	91.955	131.7939
115.000000	91.906	131.5172
117.199997	91.814	130.9796
118.000000	91.781	130.7902
120.599998	91.676	130.2021
122.000000	91.618	129.8975
124.099998	91.525	129.4828
125.000000	91.485	129.3173
126.500000	91.419	129.0505
128.000000	91.354	128.7905
131.500000	91.205	128.2134
132.000000	91.184	128.1405
134.000000	91.102	127.8871
136.000000	91.029	127.6837
138.000000	90.963	127.4872
140.000000	90.901	127.2685
143.000000	90.814	126.8884
145.000000	90.761	126.6075
147.500000	90.691	126.2322
150.000000	90.616	125.8762
152.500000	90.540	125.5427
155.000000	90.467	125.2183
157.500000	90.395	124.9221
160.000000	90.324	124.6604
162.500000	90.256	124.4193
165.000000	90.190	124.1929
167.500000	90.125	123.9929
170.000000	90.064	123.8331
172.500000	90.006	123.7104
175.000000	89.955	123.6266
177.500000	89.911	123.5762
180.000000	89.877	123.5656
182.500000	89.859	123.5994
185.000000	89.857	123.6525
187.500000	89.877	123.6991
190.000000	89.926	123.7066
192.500000	90.013	123.6180
195.000000	90.136	123.3050
197.500000	90.277	122.6111
200.000000	90.412	121.4328
203.000000	90.514	119.3804
206.000000	90.492	116.9985
209.000000	90.350	114.8121
212.000000	90.136	113.1361
214.000000	89.979	112.3354
218.000000	89.676	111.3279
220.000000	89.541	111.0197
224.000000	89.308	110.6128
227.000000	89.160	110.3953
230.000000	89.032	110.2064
233.000000	88.919	110.0396
236.000000	88.817	109.8798
240.000000	88.693	109.6443
243.000000	88.609	109.4547
247.000000	88.505	109.1953
250.000000	88.433	108.9937
254.000000	88.341	108.7233
258.000000	88.255	108.4553
262.000000	88.174	108.1794
265.000000	88.115	107.9691
269.000000	88.037	107.6787
272.000000	87.981	107.4529
276.000000	87.910	107.1511
280.000000	87.843	106.8463
285.000000	87.762	106.4587
290.000000	87.686	106.0496
295.000000	87.612	105.6206
300.000000	87.538	105.2087
304.000000	87.481	104.8819
307.000000	87.440	104.6279
311.000000	87.387	104.2814
315.000000	87.335	103.9350
320.000000	87.270	103.4960
325.000000	87.208	103.0396
330.000000	87.150	102.5610
335.000000	87.093	102.0642
340.000000	87.038	101.5557
345.000000	86.983	101.0350
350.000000	86.930	100.4897
355.000000	86.878	99.9109
360.000000	86.827	99.2939
365.000000	86.777	98.6345
370.000000	86.726	97.9287
375.000000	86.674	97.1622
382.000000	86.597	95.9833
387.000000	86.540	95.0361
395.000000	86.438	93.2645
400.000000	86.366	91.9650
406.000000	86.265	90.1447
412.000000	86.144	87.9202
418.000000	86.002	85.0727
425.000000	85.829	79.8175
431.000000	85.478	71.0380
437.000000	84.462	54.9305
444.000000	82.031	13.5312
450.000000	80.145	-56.9217
455.000000	81.413	-125.2039
462.000000	84.405	169.8817
468.000000	85.785	142.5730
475.000000	86.171	125.2527
482.000000	85.605	116.5896
487.000000	84.914	116.2205
494.000000	84.662	122.8708
500.000000	85.721	128.4421
508.000000	87.442	126.5664
515.000000	88.266	118.8909
522.000000	88.474	110.8145
530.000000	88.267	103.7563
538.000000	87.859	99.1577
545.000000	87.473	96.6270
552.000000	87.116	95.0486
560.000000	86.761	93.9928
570.000000	86.402	93.3220
580.000000	86.134	93.0281
590.000000	85.940	92.8301
600.000000	85.783	92.6641
608.000000	85.670	92.5349
615.000000	85.578	92.4625
622.000000	85.493	92.4501
630.000000	85.410	92.5072
640.000000	85.332	92.6135
650.000000	85.272	92.6472
660.000000	85.213	92.6713
670.000000	85.163	92.7373
680.000000	85.121	92.8086
690.000000	85.081	92.8591
700.000000	85.045	92.8820
710.000000	85.017	92.9099
720.000000	85.002	93.0037
730.000000	84.993	93.1901
740.000000	84.984	93.3655
750.000000	84.981	93.4828
762.000000	84.985	93.6311
775.000000	84.991	93.7854
788.000000	84.999	93.9507
800.000000	85.011	94.1204
812.000000	85.028	94.3176
825.000000	85.052	94.5363
838.000000	85.084	94.7454
850.000000	85.118	94.9460
862.000000	85.157	95.1660
875.000000	85.202	95.4102
885.000000	85.240	95.6011
900.000000	85.304	95.8876
912.000000	85.363	96.1152
925.000000	85.432	96.3550
938.000000	85.506	96.5798
950.000000	85.579	96.7820
962.000000	85.657	96.9766
975.000000	85.746	97.1713
988.000000	85.839	97.3442
1000.000000	85.928	97.4893
1015.000000	86.044	97.6517
1030.000000	86.163	97.7809
1044.000000	86.278	97.8674
1060.000000	86.413	97.9338
1075.000000	86.541	97.9645
1090.000000	86.671	97.9630
1106.000000	86.811	97.9242
1120.000000	86.933	97.8606
1138.000000	87.089	97.7466
1150.000000	87.192	97.6610
1172.000000	87.381	97.4851
1180.000000	87.448	97.4136
1206.000000	87.668	97.1848
1220.000000	87.790	97.0697
1241.000000	87.979	96.8857
1250.000000	88.062	96.7971
1265.000000	88.206	96.6360
1280.000000	88.356	96.4587
1315.000000	88.727	95.8441
1320.000000	88.781	95.7249
1340.000000	88.998	95.1731
1360.000000	89.208	94.5085
1380.000000	89.406	93.7319
1400.000000	89.589	92.8760
1430.000000	89.839	91.5565
1450.000000	89.991	90.6787
1475.000000	90.170	89.5825
1500.000000	90.340	88.5017
1525.000000	90.499	87.4419
1550.000000	90.653	86.4108
1575.000000	90.807	85.3785
1600.000000	90.956	84.3596
1625.000000	91.103	83.3790
1650.000000	91.253	82.4142
1675.000000	91.411	81.4084
1700.000000	91.576	80.3372
1725.000000	91.740	79.1793
1750.000000	91.897	77.9489
1775.000000	92.045	76.6693
1800.000000	92.185	75.3521
1825.000000	92.320	74.0027
1850.000000	92.450	72.6169
1875.000000	92.576	71.1925
1900.000000	92.697	69.7269
1925.000000	92.812	68.2177
1950.000000	92.922	66.6661
1975.000000	93.023	65.0613
2000.000000	93.114	63.4189
2030.000000	93.208	61.4147
2060.000000	93.286	59.3563
2090.000000	93.349	57.2495
2120.000000	93.397	55.1154
2140.000000	93.419	53.6730
2180.000000	93.439	50.7699
2200.000000	93.437	49.3279
2240.000000	93.406	46.4728
2270.000000	93.364	44.3640
2300.000000	93.305	42.2952
2330.000000	93.230	40.2814
2360.000000	93.140	38.3354
2400.000000	92.998	35.8666
2430.000000	92.881	34.1321
2470.000000	92.717	31.9872
2500.000000	92.597	30.4950
2540.000000	92.449	28.6038
2580.000000	92.315	26.7133
2620.000000	92.180	24.7229
2650.000000	92.067	23.1572
2690.000000	91.887	21.0698
2720.000000	91.730	19.5519
2760.000000	91.497	17.6138
2800.000000	91.236	15.8191
2850.000000	90.866	13.8885
2900.000000	90.460	12.5336
2950.000000	90.065	11.8865
3000.000000	89.733	11.7690
3040.000000	89.521	11.8987
3070.000000	89.392	12.0212
3110.000000	89.254	12.1454
3150.000000	89.146	12.2192
3200.000000	89.044	12.2218
3250.000000	88.968	12.1145
3300.000000	88.911	11.8682
3350.000000	88.863	11.4673
3400.000000	88.812	10.9241
3450.000000	88.747	10.2906
3500.000000	88.662	9.6201
3550.000000	88.552	8.9449
3600.000000	88.411	8.3236
3650.000000	88.231	7.8658
3700.000000	88.011	7.7581
3750.000000	87.772	8.2145
3820.000000	87.490	9.9194
3870.000000	87.391	11.7200
3950.000000	87.459	14.8331
4000.000000	87.625	16.5358
4060.000000	87.907	18.0892
4120.000000	88.243	19.0287
4180.000000	88.601	19.3665
4250.000000	89.019	19.0466
4310.000000	89.355	18.1791
4370.000000	89.647	16.7921
4440.000000	89.902	14.6300
4500.000000	90.026	12.4601
4550.000000	90.053	10.5626
4620.000000	89.970	7.9917
4680.000000	89.793	6.0800
4750.000000	89.484	4.4207
4820.000000	89.094	3.5497
4870.000000	88.782	3.4783
4940.000000	88.322	4.2168
5000.000000	87.934	5.7117
5080.000000	87.495	8.9064
5150.000000	87.233	12.6249
5220.000000	87.124	16.9670
5300.000000	87.224	22.3223
5380.000000	87.585	27.5691
5450.000000	88.104	31.5903
5520.000000	88.774	34.6783
5600.000000	89.645	36.7036
5700.000000	90.744	36.6962
5800.000000	91.672	34.0594
5900.000000	92.286	29.6296
6000.000000	92.542	24.6317
6080.000000	92.519	20.9878
6150.000000	92.378	18.3650
6220.000000	92.165	16.3717
6300.000000	91.878	14.8640
6400.000000	91.511	13.9844
6500.000000	91.180	13.9869
6600.000000	90.912	14.6206
6700.000000	90.720	15.6630
6800.000000	90.609	16.9264
6900.000000	90.576	18.2732
7000.000000	90.618	19.5941
7100.000000	90.740	20.7733
7200.000000	90.939	21.6943
7300.000000	91.214	22.2111
7400.000000	91.553	22.1757
7500.000000	91.935	21.4474
7620.000000	92.404	19.5403
7750.000000	92.871	16.1836
7880.000000	93.224	11.5760
8000.000000	93.390	6.5386
8120.000000	93.374	1.2355
8250.000000	93.155	-4.2186
8380.000000	92.771	-8.7969
8500.000000	92.338	-11.9482
8620.000000	91.898	-14.0425
8750.000000	91.479	-15.2964
8850.000000	91.228	-15.7246
9000.000000	90.993	-15.8485
9120.000000	90.931	-15.8092
9250.000000	90.976	-15.9644
9380.000000	91.116	-16.6425
9500.000000	91.307	-18.0320
9620.000000	91.491	-20.2537
9750.000000	91.591	-23.5562
9880.000000	91.521	-27.5920
10000.000000	91.256	-31.5298
10150.000000	90.632	-35.7911
10300.000000	89.740	-38.3168
10440.000000	88.787	-38.6489
10600.000000	87.709	-36.7458
10750.000000	86.826	-33.2600
10900.000000	86.136	-28.7897
11060.000000	85.636	-23.6855
11200.000000	85.376	-19.4873
11380.000000	85.204	-15.0559
11500.000000	85.128	-12.8879
11720.000000	84.923	-10.4341
11800.000000	84.802	-9.8875
12060.000000	84.190	-8.4277
12200.000000	83.755	-7.4597
12410.000000	83.062	-5.8384
12500.000000	82.760	-5.1675
12650.000000	82.251	-4.1627
12800.000000	81.732	-3.3605
13150.000000	80.458	-2.2062
13200.000000	80.270	-2.0914
13400.000000	79.523	-1.6503
13600.000000	78.806	-1.0131
13800.000000	78.197	0.0917
14000.000000	77.805	1.7196
14300.000000	77.810	4.4968
14500.000000	78.222	5.8118
14750.000000	79.037	6.0066
15000.000000	79.910	4.3123
15250.000000	80.583	1.4011
15500.000000	80.950	-1.3580
15750.000000	81.078	-3.0427
16000.000000	81.054	-3.8990
16250.000000	80.818	-4.7732
16500.000000	80.168	-5.5234
16750.000000	78.950	-3.9518
17000.000000	77.293	2.8218
17250.000000	75.747	15.6898
17500.000000	75.163	31.2833
17750.000000	75.754	42.7908
18000.000000	76.611	43.7164
18250.000000	76.578	30.6858
18500.000000	74.790	4.1738
18750.000000	70.881	-37.9846
19000.000000	65.403	-96.4747
19250.000000	62.138	-142.0867
19500.000000	62.831	-154.3223
19750.000000	63.869	-148.1990
