* Measurement data measured by REW V5.20.9
* Source: Input device not selected, no input selected, R, volume: no control
* Format: 256k Log Swept Sine, 1 sweep at 0.0 dBFS with no timing reference
* Dated: 06/10/2022 3:28:48 PM
* REW Settings:
*  C-weighting compensation: Off
*  Target level: 75.0 dB
* Note: ; 
* Measurement: AK Pathfinder L
* Smoothing: 1/24 octave
* Frequency Step: 1/48 octave
* Start Frequency: 20.000 Hz
*
* Freq(Hz)	SPL(dB)	Phase(degrees)
20.000000	103.810	7.4737
20.299999	103.803	7.0613
20.600000	103.795	6.6462
20.900000	103.785	6.2310
21.200001	103.774	5.8228
21.400000	103.765	5.5587
21.799999	103.747	5.0536
22.000000	103.738	4.8126
22.400000	103.720	4.3494
22.700001	103.709	4.0130
23.000000	103.698	3.6813
23.299999	103.688	3.3522
23.600000	103.678	3.0249
24.000000	103.666	2.5908
24.299999	103.656	2.2669
24.700001	103.642	1.8375
25.000000	103.632	1.5184
25.400000	103.616	1.0991
25.799999	103.600	0.6904
26.200001	103.582	0.2947
26.500000	103.569	0.0062
26.900000	103.552	-0.3691
27.200001	103.539	-0.6450
27.600000	103.521	-1.0066
28.000000	103.504	-1.3608
28.500000	103.482	-1.7941
29.000000	103.460	-2.2210
29.500000	103.438	-2.6461
30.000000	103.414	-3.0645
30.400000	103.394	-3.3866
30.700001	103.379	-3.6182
31.100000	103.359	-3.9171
31.500000	103.341	-4.2124
32.000000	103.319	-4.5857
32.500000	103.295	-4.9565
33.000000	103.269	-5.3056
33.500000	103.244	-5.6274
34.000000	103.222	-5.9407
34.500000	103.203	-6.2668
35.000000	103.182	-6.6054
35.500000	103.158	-6.9383
36.000000	103.133	-7.2548
36.500000	103.109	-7.5625
37.000000	103.086	-7.8740
37.500000	103.062	-8.1902
38.200001	103.025	-8.6229
38.700001	103.000	-8.9183
39.500000	102.960	-9.3838
40.000000	102.935	-9.6754
40.599998	102.904	-10.0153
41.200001	102.873	-10.3309
41.799999	102.844	-10.6277
42.500000	102.813	-10.9738
43.099998	102.784	-11.2728
43.700001	102.754	-11.5582
44.400002	102.719	-11.8719
45.000000	102.688	-12.1389
45.500000	102.661	-12.3593
46.200001	102.621	-12.6532
46.799999	102.587	-12.8958
47.500000	102.546	-13.1733
48.200001	102.504	-13.4174
48.700001	102.480	-13.5741
49.400002	102.455	-13.8333
50.000000	102.434	-14.1295
50.799999	102.392	-14.5480
51.500000	102.349	-14.8434
52.200001	102.313	-15.0966
53.000000	102.278	-15.3986
53.799999	102.241	-15.7026
54.500000	102.208	-15.9553
55.200001	102.174	-16.2000
56.000000	102.135	-16.4659
57.000000	102.086	-16.7787
58.000000	102.036	-17.0857
59.000000	101.987	-17.3881
60.000000	101.937	-17.6913
60.799999	101.896	-17.9287
61.500000	101.860	-18.1257
62.200001	101.826	-18.3174
63.000000	101.788	-18.5416
64.000000	101.740	-18.8266
65.000000	101.690	-19.0955
66.000000	101.641	-19.3464
67.000000	101.592	-19.5923
68.000000	101.543	-19.8341
69.000000	101.493	-20.0651
70.000000	101.444	-20.2906
71.000000	101.394	-20.5193
72.000000	101.343	-20.7419
73.000000	101.293	-20.9453
74.000000	101.244	-21.1395
75.000000	101.197	-21.3332
76.199997	101.141	-21.5643
77.500000	101.078	-21.8203
78.800003	101.012	-22.0502
80.000000	100.952	-22.2435
81.199997	100.893	-22.4221
82.500000	100.832	-22.6023
83.800003	100.773	-22.7745
85.000000	100.717	-22.9397
86.199997	100.655	-23.0892
87.500000	100.588	-23.2202
88.500000	100.539	-23.3274
90.000000	100.470	-23.5208
91.199997	100.419	-23.6652
92.500000	100.373	-23.7887
93.800003	100.325	-23.9160
95.000000	100.264	-23.9641
96.199997	100.183	-23.8945
97.500000	100.078	-23.5883
98.800003	100.012	-23.0310
100.000000	100.034	-22.8633
101.500000	100.036	-23.6700
103.000000	99.938	-24.4891
104.400002	99.851	-24.8704
106.000000	99.783	-25.0837
107.500000	99.726	-25.1879
109.000000	99.662	-25.2410
110.599998	99.585	-25.3114
112.000000	99.513	-25.3895
113.800003	99.427	-25.4882
115.000000	99.375	-25.5514
117.199997	99.276	-25.6282
118.000000	99.237	-25.6359
120.599998	99.106	-25.6705
122.000000	99.033	-25.7089
124.099998	98.924	-25.7506
125.000000	98.877	-25.7452
126.500000	98.798	-25.7007
128.000000	98.715	-25.6196
131.500000	98.494	-25.2047
132.000000	98.462	-25.1035
134.000000	98.343	-24.5892
136.000000	98.232	-23.8544
138.000000	98.144	-22.7738
140.000000	98.129	-21.5201
143.000000	98.261	-20.1057
145.000000	98.416	-19.8761
147.500000	98.572	-20.4169
150.000000	98.625	-21.3088
152.500000	98.601	-22.1326
155.000000	98.535	-22.7781
157.500000	98.452	-23.2263
160.000000	98.362	-23.5225
162.500000	98.270	-23.7147
165.000000	98.183	-23.8486
167.500000	98.097	-23.9333
170.000000	98.014	-23.9733
172.500000	97.932	-23.9791
175.000000	97.854	-23.9578
177.500000	97.780	-23.9109
180.000000	97.707	-23.8502
182.500000	97.635	-23.7843
185.000000	97.565	-23.7101
187.500000	97.496	-23.6219
190.000000	97.428	-23.5204
192.500000	97.362	-23.4073
195.000000	97.298	-23.2965
197.500000	97.235	-23.1871
200.000000	97.173	-23.0668
203.000000	97.098	-22.8994
206.000000	97.026	-22.7266
209.000000	96.955	-22.5602
212.000000	96.884	-22.3850
214.000000	96.836	-22.2604
218.000000	96.742	-21.9871
220.000000	96.697	-21.8427
224.000000	96.608	-21.5353
227.000000	96.540	-21.2842
230.000000	96.473	-21.0215
233.000000	96.412	-20.7399
236.000000	96.352	-20.4003
240.000000	96.273	-19.8240
243.000000	96.227	-19.3572
247.000000	96.197	-18.7976
250.000000	96.193	-18.4906
254.000000	96.188	-18.2673
258.000000	96.164	-18.1638
262.000000	96.123	-18.0552
265.000000	96.082	-17.9594
269.000000	96.020	-17.8262
272.000000	95.974	-17.6955
276.000000	95.914	-17.4734
280.000000	95.855	-17.2290
285.000000	95.784	-16.9056
290.000000	95.716	-16.5584
295.000000	95.648	-16.2043
300.000000	95.585	-15.8738
304.000000	95.536	-15.5945
307.000000	95.499	-15.3726
311.000000	95.450	-15.0710
315.000000	95.403	-14.7600
320.000000	95.347	-14.3647
325.000000	95.294	-13.9838
330.000000	95.243	-13.6038
335.000000	95.193	-13.2120
340.000000	95.144	-12.8225
345.000000	95.096	-12.4342
350.000000	95.051	-12.0437
355.000000	95.006	-11.6513
360.000000	94.963	-11.2522
365.000000	94.923	-10.8501
370.000000	94.884	-10.4481
375.000000	94.843	-10.0433
382.000000	94.788	-9.4727
387.000000	94.752	-9.0559
395.000000	94.698	-8.3701
400.000000	94.670	-7.9349
406.000000	94.639	-7.4160
412.000000	94.614	-6.9226
418.000000	94.591	-6.4583
425.000000	94.564	-5.9409
431.000000	94.540	-5.5056
437.000000	94.515	-5.0669
444.000000	94.489	-4.5391
450.000000	94.471	-4.0778
455.000000	94.460	-3.7018
462.000000	94.449	-3.2059
468.000000	94.441	-2.8197
475.000000	94.431	-2.4167
482.000000	94.417	-2.0411
487.000000	94.404	-1.7792
494.000000	94.382	-1.4133
500.000000	94.362	-1.0948
508.000000	94.333	-0.6544
515.000000	94.308	-0.2548
522.000000	94.284	0.1523
530.000000	94.257	0.6205
538.000000	94.233	1.0925
545.000000	94.212	1.5092
552.000000	94.192	1.9262
560.000000	94.171	2.3970
570.000000	94.145	2.9827
580.000000	94.121	3.5593
590.000000	94.098	4.1241
600.000000	94.076	4.6831
608.000000	94.059	5.1222
615.000000	94.045	5.5043
622.000000	94.030	5.8846
630.000000	94.013	6.3144
640.000000	93.991	6.8467
650.000000	93.970	7.3653
660.000000	93.948	7.8805
670.000000	93.925	8.3912
680.000000	93.901	8.8928
690.000000	93.876	9.3922
700.000000	93.848	9.8870
710.000000	93.819	10.3802
720.000000	93.787	10.8735
730.000000	93.753	11.3673
740.000000	93.716	11.8672
750.000000	93.674	12.3757
762.000000	93.620	13.0046
775.000000	93.556	13.7064
788.000000	93.485	14.4421
800.000000	93.414	15.1641
812.000000	93.337	15.9453
825.000000	93.247	16.8647
838.000000	93.152	17.8708
850.000000	93.061	18.8915
862.000000	92.970	20.0143
875.000000	92.870	21.3535
885.000000	92.795	22.4831
900.000000	92.690	24.3514
912.000000	92.617	25.9991
925.000000	92.553	27.9388
938.000000	92.511	30.0272
950.000000	92.496	32.0723
962.000000	92.507	34.2081
975.000000	92.552	36.6010
988.000000	92.634	39.0367
1000.000000	92.745	41.2719
1015.000000	92.930	43.9949
1030.000000	93.163	46.5949
1044.000000	93.419	48.8682
1060.000000	93.752	51.2316
1075.000000	94.093	53.1815
1090.000000	94.453	54.8685
1106.000000	94.851	56.3807
1120.000000	95.206	57.4630
1138.000000	95.662	58.5297
1150.000000	95.963	59.0627
1172.000000	96.501	59.7135
1180.000000	96.690	59.8515
1206.000000	97.280	59.9990
1220.000000	97.581	59.9174
1241.000000	98.012	59.6161
1250.000000	98.187	59.4307
1265.000000	98.469	59.0629
1280.000000	98.738	58.6394
1315.000000	99.317	57.4261
1320.000000	99.395	57.2312
1340.000000	99.694	56.4249
1360.000000	99.975	55.5964
1380.000000	100.240	54.7335
1400.000000	100.493	53.8334
1430.000000	100.851	52.4572
1450.000000	101.077	51.5130
1475.000000	101.350	50.2796
1500.000000	101.612	48.9958
1525.000000	101.865	47.6646
1550.000000	102.110	46.2734
1575.000000	102.347	44.7790
1600.000000	102.573	43.1871
1625.000000	102.784	41.5230
1650.000000	102.980	39.7644
1675.000000	103.160	37.8811
1700.000000	103.321	35.8987
1725.000000	103.459	33.8320
1750.000000	103.572	31.6910
1775.000000	103.656	29.4891
1800.000000	103.711	27.2469
1825.000000	103.736	24.9897
1850.000000	103.730	22.7426
1875.000000	103.694	20.5332
1900.000000	103.629	18.3795
1925.000000	103.537	16.3024
1950.000000	103.423	14.3195
1975.000000	103.287	12.4310
2000.000000	103.130	10.6600
2030.000000	102.919	8.7182
2060.000000	102.686	6.9556
2090.000000	102.440	5.3680
2120.000000	102.183	3.9747
2140.000000	102.008	3.1403
2180.000000	101.651	1.6880
2200.000000	101.472	1.0752
2240.000000	101.114	0.0464
2270.000000	100.849	-0.5736
2300.000000	100.591	-1.0665
2330.000000	100.338	-1.4427
2360.000000	100.093	-1.7174
2400.000000	99.776	-1.9429
2430.000000	99.548	-2.0074
2470.000000	99.254	-1.9827
2500.000000	99.041	-1.8882
2540.000000	98.768	-1.6378
2580.000000	98.513	-1.3115
2620.000000	98.277	-0.9041
2650.000000	98.105	-0.5242
2690.000000	97.883	0.0717
2720.000000	97.722	0.5793
2760.000000	97.520	1.3178
2800.000000	97.333	2.1360
2850.000000	97.122	3.2583
2900.000000	96.935	4.4895
2950.000000	96.776	5.8182
3000.000000	96.645	7.1926
3040.000000	96.558	8.3564
3070.000000	96.502	9.2472
3110.000000	96.445	10.4371
3150.000000	96.409	11.6399
3200.000000	96.392	13.1396
3250.000000	96.403	14.6335
3300.000000	96.442	16.1035
3350.000000	96.511	17.5353
3400.000000	96.609	18.9204
3450.000000	96.734	20.2457
3500.000000	96.887	21.5025
3550.000000	97.069	22.6743
3600.000000	97.280	23.7488
3650.000000	97.521	24.7076
3700.000000	97.790	25.5373
3750.000000	98.088	26.2253
3820.000000	98.558	26.8752
3870.000000	98.932	27.0797
3950.000000	99.593	26.8328
4000.000000	100.041	26.2354
4060.000000	100.603	24.9623
4120.000000	101.177	22.9532
4180.000000	101.733	20.1012
4250.000000	102.305	15.6502
4310.000000	102.676	10.9536
4370.000000	102.892	5.7013
4440.000000	102.924	-0.5836
4500.000000	102.774	-5.5950
4550.000000	102.556	-9.2395
4620.000000	102.172	-13.3806
4680.000000	101.824	-16.1064
4750.000000	101.442	-18.5763
4820.000000	101.097	-20.5637
4870.000000	100.868	-21.7981
4940.000000	100.561	-23.3546
5000.000000	100.302	-24.5409
5080.000000	99.955	-25.8771
5150.000000	99.647	-26.7712
5220.000000	99.339	-27.3727
5300.000000	98.995	-27.6833
5380.000000	98.672	-27.6062
5450.000000	98.415	-27.2603
5520.000000	98.189	-26.7045
5600.000000	97.971	-25.8663
5700.000000	97.757	-24.6083
5800.000000	97.604	-23.1811
5900.000000	97.506	-21.6150
6000.000000	97.458	-19.9207
6080.000000	97.452	-18.4625
6150.000000	97.471	-17.1158
6220.000000	97.514	-15.6984
6300.000000	97.593	-13.9849
6400.000000	97.740	-11.7135
6500.000000	97.948	-9.3138
6600.000000	98.223	-6.8138
6700.000000	98.573	-4.2449
6800.000000	99.010	-1.6703
6900.000000	99.540	0.8008
7000.000000	100.156	3.0363
7100.000000	100.864	5.0634
7200.000000	101.704	6.7560
7300.000000	102.653	7.7157
7400.000000	103.722	8.0835
7500.000000	105.017	7.5180
7620.000000	106.773	3.6316
7750.000000	108.506	-6.5157
7880.000000	109.455	-23.0125
8000.000000	109.253	-40.1110
8120.000000	108.099	-53.6848
8250.000000	106.279	-61.9209
8380.000000	104.398	-64.6450
8500.000000	102.848	-64.0396
8620.000000	101.532	-61.5945
8750.000000	100.355	-57.6151
8850.000000	99.607	-53.9009
9000.000000	98.724	-47.5809
9120.000000	98.220	-42.1152
9250.000000	97.876	-36.1027
9380.000000	97.740	-30.4187
9500.000000	97.778	-25.9152
9620.000000	97.889	-22.2763
9750.000000	97.997	-19.1271
9880.000000	98.063	-16.4269
10000.000000	98.107	-14.0434
10150.000000	98.191	-11.1107
10300.000000	98.346	-8.4587
10440.000000	98.559	-6.6115
10600.000000	98.832	-5.6306
10750.000000	99.037	-5.9802
10900.000000	99.109	-7.4645
11060.000000	98.959	-9.8160
11200.000000	98.607	-11.8904
11380.000000	97.880	-13.6686
11500.000000	97.271	-13.9602
11720.000000	96.045	-12.4315
11800.000000	95.599	-11.2722
12060.000000	94.262	-5.8564
12200.000000	93.642	-2.2280
12410.000000	92.880	3.5450
12500.000000	92.619	5.9747
12650.000000	92.264	9.6857
12800.000000	91.979	12.5885
13150.000000	91.066	14.2191
13200.000000	90.826	13.9352
13400.000000	89.345	13.6985
13600.000000	86.973	20.1832
13800.000000	84.374	37.4090
14000.000000	83.017	60.5237
14300.000000	83.758	91.0485
14500.000000	84.963	106.2256
14750.000000	86.748	120.5829
15000.000000	88.734	130.2124
15250.000000	90.741	134.2749
15500.000000	92.348	131.6801
15750.000000	93.059	123.8948
16000.000000	92.732	116.0762
16250.000000	91.746	112.6108
16500.000000	90.778	113.3993
16750.000000	90.329	114.6830
17000.000000	90.235	112.2638
17250.000000	89.933	104.6052
17500.000000	88.914	93.4320
17750.000000	86.923	83.4731
18000.000000	84.082	79.3619
18250.000000	80.831	82.4126
18500.000000	77.744	90.6512
18750.000000	75.153	101.7611
19000.000000	73.085	114.5991
19250.000000	71.496	128.3104
19500.000000	70.291	142.0123
19750.000000	69.380	154.2069
