* Measurement data measured by REW V5.20.13
* Source: Primary Sound Capture Driver, no input selected, R, volume: no control
* Format: 256k Log Swept Sine, 1 sweep at 0.0 dBFS with no timing reference
* Dated: 01/11/2023 12:11:04 PM
* REW Settings:
*  C-weighting compensation: Off
*  Target level: 75.0 dB
* Note: ; 
* Measurement: Astell&Kern Aura L
* Smoothing: 1/24 octave
* Frequency Step: 1/48 octave
* Start Frequency: 20.000 Hz
*
* Freq(Hz)	SPL(dB)	Phase(degrees)
20.000000	101.614	-0.8365
20.299999	101.610	-1.0555
20.600000	101.608	-1.2675
20.900000	101.607	-1.4795
21.200001	101.607	-1.6976
21.400000	101.607	-1.8460
21.799999	101.603	-2.1432
22.000000	101.599	-2.2877
22.400000	101.590	-2.5596
22.700001	101.582	-2.7472
23.000000	101.574	-2.9239
23.299999	101.566	-3.0952
23.600000	101.559	-3.2643
24.000000	101.548	-3.4884
24.299999	101.539	-3.6547
24.700001	101.526	-3.8732
25.000000	101.517	-4.0362
25.400000	101.505	-4.2563
25.799999	101.492	-4.4815
26.200001	101.479	-4.7089
26.500000	101.469	-4.8774
26.900000	101.456	-5.0968
27.200001	101.446	-5.2582
27.600000	101.435	-5.4734
28.000000	101.426	-5.6923
28.500000	101.413	-5.9699
29.000000	101.401	-6.2416
29.500000	101.388	-6.4979
30.000000	101.376	-6.7388
30.400000	101.367	-6.9250
30.700001	101.361	-7.0627
31.100000	101.353	-7.2441
31.500000	101.343	-7.4212
32.000000	101.331	-7.6334
32.500000	101.318	-7.8350
33.000000	101.305	-8.0302
33.500000	101.291	-8.2240
34.000000	101.277	-8.4184
34.500000	101.263	-8.6116
35.000000	101.248	-8.8029
35.500000	101.234	-8.9950
36.000000	101.220	-9.1918
36.500000	101.206	-9.3937
37.000000	101.192	-9.5962
37.500000	101.177	-9.7926
38.200001	101.157	-10.0501
38.700001	101.144	-10.2251
39.500000	101.127	-10.5073
40.000000	101.116	-10.6866
40.599998	101.101	-10.8937
41.200001	101.086	-11.0838
41.799999	101.072	-11.2643
42.500000	101.055	-11.4753
43.099998	101.040	-11.6566
43.700001	101.024	-11.8410
44.400002	101.003	-12.0618
45.000000	100.983	-12.2397
45.500000	100.967	-12.3794
46.200001	100.947	-12.6085
46.799999	100.923	-12.8512
47.500000	100.879	-13.0684
48.200001	100.842	-13.1135
48.700001	100.836	-13.1170
49.400002	100.847	-13.2647
50.000000	100.849	-13.5319
50.799999	100.831	-13.8897
51.500000	100.811	-14.1200
52.200001	100.795	-14.3293
53.000000	100.777	-14.5658
53.799999	100.758	-14.7744
54.500000	100.742	-14.9397
55.200001	100.726	-15.0949
56.000000	100.709	-15.2723
57.000000	100.686	-15.5201
58.000000	100.657	-15.7699
59.000000	100.629	-15.9997
60.000000	100.603	-16.2307
60.799999	100.585	-16.4270
61.500000	100.567	-16.5999
62.200001	100.550	-16.7628
63.000000	100.530	-16.9370
64.000000	100.508	-17.1534
65.000000	100.484	-17.3680
66.000000	100.461	-17.5811
67.000000	100.436	-17.8042
68.000000	100.409	-18.0230
69.000000	100.384	-18.2316
70.000000	100.360	-18.4432
71.000000	100.338	-18.6591
72.000000	100.314	-18.8713
73.000000	100.291	-19.0758
74.000000	100.268	-19.2751
75.000000	100.245	-19.4793
76.199997	100.215	-19.7290
77.500000	100.181	-19.9775
78.800003	100.150	-20.2244
80.000000	100.123	-20.4660
81.199997	100.093	-20.7076
82.500000	100.062	-20.9555
83.800003	100.031	-21.2041
85.000000	100.003	-21.4368
86.199997	99.973	-21.6687
87.500000	99.940	-21.9179
88.500000	99.914	-22.1050
90.000000	99.875	-22.3839
91.199997	99.843	-22.6032
92.500000	99.809	-22.8398
93.800003	99.775	-23.0726
95.000000	99.744	-23.2828
96.199997	99.713	-23.4966
97.500000	99.680	-23.7431
98.800003	99.642	-23.9924
100.000000	99.606	-24.1950
101.500000	99.565	-24.4188
103.000000	99.526	-24.6553
104.400002	99.487	-24.8769
106.000000	99.441	-25.1227
107.500000	99.396	-25.3541
109.000000	99.351	-25.5905
110.599998	99.302	-25.8429
112.000000	99.259	-26.0620
113.800003	99.202	-26.3307
115.000000	99.163	-26.4995
117.199997	99.089	-26.8025
118.000000	99.061	-26.9109
120.599998	98.966	-27.2382
122.000000	98.912	-27.3909
124.099998	98.828	-27.5899
125.000000	98.790	-27.6614
126.500000	98.724	-27.7582
128.000000	98.656	-27.8227
131.500000	98.485	-27.7626
132.000000	98.461	-27.7161
134.000000	98.367	-27.4021
136.000000	98.293	-26.8666
138.000000	98.267	-26.1484
140.000000	98.309	-25.4653
143.000000	98.465	-25.1338
145.000000	98.565	-25.4973
147.500000	98.632	-26.3088
150.000000	98.639	-27.1849
152.500000	98.606	-27.9756
155.000000	98.549	-28.6456
157.500000	98.480	-29.2067
160.000000	98.407	-29.6791
162.500000	98.334	-30.0824
165.000000	98.261	-30.4351
167.500000	98.188	-30.7459
170.000000	98.116	-31.0191
172.500000	98.046	-31.2570
175.000000	97.977	-31.4651
177.500000	97.912	-31.6538
180.000000	97.850	-31.8360
182.500000	97.791	-32.0199
185.000000	97.733	-32.2080
187.500000	97.676	-32.4038
190.000000	97.618	-32.6070
192.500000	97.558	-32.8111
195.000000	97.497	-33.0122
197.500000	97.434	-33.2064
200.000000	97.370	-33.3881
203.000000	97.292	-33.5905
206.000000	97.213	-33.7737
209.000000	97.134	-33.9356
212.000000	97.054	-34.0780
214.000000	97.000	-34.1578
218.000000	96.893	-34.2912
220.000000	96.840	-34.3486
224.000000	96.733	-34.4366
227.000000	96.655	-34.4706
230.000000	96.579	-34.4765
233.000000	96.505	-34.4615
236.000000	96.436	-34.4351
240.000000	96.348	-34.3959
243.000000	96.284	-34.3596
247.000000	96.201	-34.3059
250.000000	96.139	-34.2574
254.000000	96.059	-34.1564
258.000000	95.986	-34.0084
262.000000	95.928	-33.8373
265.000000	95.894	-33.7255
269.000000	95.858	-33.6521
272.000000	95.832	-33.6700
276.000000	95.790	-33.7703
280.000000	95.735	-33.9119
285.000000	95.653	-34.0716
290.000000	95.561	-34.1542
295.000000	95.469	-34.1537
300.000000	95.385	-34.0835
304.000000	95.326	-34.0029
307.000000	95.287	-33.9518
311.000000	95.238	-33.9192
315.000000	95.189	-33.9338
320.000000	95.124	-33.9936
325.000000	95.053	-34.0654
330.000000	94.976	-34.1247
335.000000	94.896	-34.1517
340.000000	94.815	-34.1546
345.000000	94.735	-34.1325
350.000000	94.656	-34.0808
355.000000	94.577	-34.0118
360.000000	94.499	-33.9303
365.000000	94.423	-33.8328
370.000000	94.348	-33.7249
375.000000	94.274	-33.6114
382.000000	94.172	-33.4321
387.000000	94.102	-33.2942
395.000000	93.993	-33.0581
400.000000	93.927	-32.8982
406.000000	93.849	-32.6943
412.000000	93.773	-32.4803
418.000000	93.700	-32.2538
425.000000	93.616	-31.9770
431.000000	93.546	-31.7316
437.000000	93.479	-31.4790
444.000000	93.405	-31.1830
450.000000	93.344	-30.9276
455.000000	93.295	-30.7123
462.000000	93.228	-30.4161
468.000000	93.172	-30.1646
475.000000	93.107	-29.8662
482.000000	93.043	-29.5647
487.000000	92.998	-29.3462
494.000000	92.935	-29.0283
500.000000	92.883	-28.7465
508.000000	92.818	-28.3577
515.000000	92.763	-28.0055
522.000000	92.712	-27.6533
530.000000	92.658	-27.2524
538.000000	92.606	-26.8466
545.000000	92.562	-26.4908
552.000000	92.521	-26.1374
560.000000	92.475	-25.7392
570.000000	92.422	-25.2536
580.000000	92.371	-24.7861
590.000000	92.324	-24.3321
600.000000	92.278	-23.8717
608.000000	92.241	-23.4972
615.000000	92.209	-23.1631
622.000000	92.177	-22.8214
630.000000	92.141	-22.4273
640.000000	92.097	-21.9305
650.000000	92.058	-21.4248
660.000000	92.021	-20.9155
670.000000	91.988	-20.4006
680.000000	91.958	-19.8781
690.000000	91.929	-19.3445
700.000000	91.903	-18.8021
710.000000	91.879	-18.2503
720.000000	91.857	-17.6923
730.000000	91.838	-17.1286
740.000000	91.823	-16.5622
750.000000	91.811	-15.9962
762.000000	91.801	-15.3060
775.000000	91.796	-14.5567
788.000000	91.796	-13.7995
800.000000	91.801	-13.0981
812.000000	91.811	-12.3932
825.000000	91.828	-11.6233
838.000000	91.851	-10.8631
850.000000	91.879	-10.1655
862.000000	91.912	-9.4667
875.000000	91.953	-8.7208
885.000000	91.989	-8.1545
900.000000	92.049	-7.3217
912.000000	92.105	-6.6777
925.000000	92.170	-6.0025
938.000000	92.241	-5.3556
950.000000	92.312	-4.7788
962.000000	92.387	-4.2231
975.000000	92.472	-3.6504
988.000000	92.561	-3.1126
1000.000000	92.647	-2.6477
1015.000000	92.759	-2.1099
1030.000000	92.875	-1.6252
1044.000000	92.985	-1.2203
1060.000000	93.114	-0.8100
1075.000000	93.236	-0.4778
1090.000000	93.358	-0.1961
1106.000000	93.489	0.0501
1120.000000	93.602	0.2203
1138.000000	93.745	0.3834
1150.000000	93.837	0.4666
1172.000000	94.003	0.5663
1180.000000	94.061	0.5842
1206.000000	94.244	0.5952
1220.000000	94.340	0.5800
1241.000000	94.478	0.5216
1250.000000	94.535	0.4856
1265.000000	94.627	0.4212
1280.000000	94.718	0.3598
1315.000000	94.919	0.1778
1320.000000	94.946	0.1484
1340.000000	95.054	0.0401
1360.000000	95.157	-0.0489
1380.000000	95.258	-0.1417
1400.000000	95.357	-0.2436
1430.000000	95.502	-0.3628
1450.000000	95.598	-0.4265
1475.000000	95.717	-0.5136
1500.000000	95.838	-0.5856
1525.000000	95.958	-0.6373
1550.000000	96.079	-0.6736
1575.000000	96.205	-0.7267
1600.000000	96.332	-0.7838
1625.000000	96.460	-0.8128
1650.000000	96.589	-0.8386
1675.000000	96.723	-0.8897
1700.000000	96.864	-0.9455
1725.000000	97.008	-1.0168
1750.000000	97.156	-1.1043
1775.000000	97.308	-1.2091
1800.000000	97.464	-1.3464
1825.000000	97.623	-1.5178
1850.000000	97.787	-1.7257
1875.000000	97.954	-1.9817
1900.000000	98.124	-2.2937
1925.000000	98.296	-2.6623
1950.000000	98.468	-3.0961
1975.000000	98.640	-3.6109
2000.000000	98.805	-4.1888
2030.000000	98.994	-4.9507
2060.000000	99.169	-5.8106
2090.000000	99.331	-6.7572
2120.000000	99.476	-7.7512
2140.000000	99.562	-8.4347
2180.000000	99.703	-9.7976
2200.000000	99.759	-10.4469
2240.000000	99.845	-11.6400
2270.000000	99.892	-12.4140
2300.000000	99.931	-13.0634
2330.000000	99.967	-13.5836
2360.000000	100.008	-13.9915
2400.000000	100.072	-14.4208
2430.000000	100.131	-14.6975
2470.000000	100.218	-15.0787
2500.000000	100.287	-15.4126
2540.000000	100.374	-15.9329
2580.000000	100.446	-16.5179
2620.000000	100.496	-17.1404
2650.000000	100.519	-17.6101
2690.000000	100.528	-18.1803
2720.000000	100.522	-18.5514
2760.000000	100.503	-18.9664
2800.000000	100.475	-19.2634
2850.000000	100.435	-19.4660
2900.000000	100.394	-19.4769
2950.000000	100.363	-19.3091
3000.000000	100.344	-19.0191
3040.000000	100.337	-18.6680
3070.000000	100.339	-18.3600
3110.000000	100.353	-17.9204
3150.000000	100.384	-17.4447
3200.000000	100.446	-16.8345
3250.000000	100.532	-16.2332
3300.000000	100.641	-15.6768
3350.000000	100.774	-15.2133
3400.000000	100.926	-14.8817
3450.000000	101.091	-14.7173
3500.000000	101.263	-14.7548
3550.000000	101.433	-15.0211
3600.000000	101.591	-15.5173
3650.000000	101.728	-16.2230
3700.000000	101.829	-17.0763
3750.000000	101.889	-17.9917
3820.000000	101.906	-19.2355
3870.000000	101.876	-19.9713
3950.000000	101.783	-20.7448
4000.000000	101.712	-20.9573
4060.000000	101.629	-20.9590
4120.000000	101.561	-20.7619
4180.000000	101.514	-20.4505
4250.000000	101.480	-20.0454
4310.000000	101.463	-19.7366
4370.000000	101.443	-19.4718
4440.000000	101.409	-19.1802
4500.000000	101.365	-18.8859
4550.000000	101.321	-18.5640
4620.000000	101.257	-17.9825
4680.000000	101.209	-17.3798
4750.000000	101.165	-16.5948
4820.000000	101.133	-15.7686
4870.000000	101.115	-15.1736
4940.000000	101.096	-14.3617
5000.000000	101.082	-13.6901
5080.000000	101.063	-12.8333
5150.000000	101.041	-12.1112
5220.000000	101.012	-11.3999
5300.000000	100.966	-10.5810
5380.000000	100.905	-9.7247
5450.000000	100.839	-8.9286
5520.000000	100.763	-8.0784
5600.000000	100.663	-7.0101
5700.000000	100.520	-5.5067
5800.000000	100.364	-3.7915
5900.000000	100.201	-1.8333
6000.000000	100.038	0.3725
6080.000000	99.911	2.3256
6150.000000	99.807	4.1618
6220.000000	99.713	6.1044
6300.000000	99.621	8.4463
6400.000000	99.534	11.5252
6500.000000	99.482	14.7317
6600.000000	99.470	18.0149
6700.000000	99.499	21.3121
6800.000000	99.571	24.5632
6900.000000	99.683	27.7339
7000.000000	99.839	30.7343
7100.000000	100.034	33.4389
7200.000000	100.253	35.7713
7300.000000	100.476	37.6765
7400.000000	100.684	39.1817
7500.000000	100.861	40.3603
7620.000000	101.019	41.4650
7750.000000	101.119	42.4633
7880.000000	101.159	43.4679
8000.000000	101.172	44.4612
8120.000000	101.185	45.4063
8250.000000	101.203	46.0982
8380.000000	101.192	46.1691
8500.000000	101.097	45.6131
8620.000000	100.863	44.6431
8750.000000	100.414	43.6029
8850.000000	99.929	43.2003
9000.000000	99.024	43.7879
9120.000000	98.207	45.5042
9250.000000	97.299	48.6029
9380.000000	96.421	52.8186
9500.000000	95.670	57.5056
9620.000000	94.991	62.7800
9750.000000	94.343	68.9775
9880.000000	93.791	75.5155
10000.000000	93.364	81.7339
10150.000000	92.936	89.6076
10300.000000	92.616	97.4433
10440.000000	92.406	104.5944
10600.000000	92.253	112.4393
10750.000000	92.172	119.3642
10900.000000	92.130	125.7810
11060.000000	92.097	131.9947
11200.000000	92.047	136.8957
11380.000000	91.901	142.5892
11500.000000	91.728	146.1604
11720.000000	91.221	152.8455
11800.000000	90.978	155.4992
12060.000000	90.039	165.6483
12200.000000	89.490	172.2794
12410.000000	88.718	-176.2649
12500.000000	88.433	-170.8522
12650.000000	88.043	-161.2710
12800.000000	87.783	-151.1469
13150.000000	87.783	-126.5469
13200.000000	87.858	-123.0373
13400.000000	88.340	-109.3431
13600.000000	89.096	-96.6074
13800.000000	90.067	-85.3199
14000.000000	91.175	-75.8466
14300.000000	92.910	-65.4871
14500.000000	93.976	-61.2075
14750.000000	95.054	-58.2762
15000.000000	95.802	-56.8925
15250.000000	96.271	-56.1584
15500.000000	96.506	-55.9601
15750.000000	96.456	-56.3184
16000.000000	96.032	-56.3447
16250.000000	95.290	-54.2987
16500.000000	94.560	-49.5631
16750.000000	94.226	-43.9692
17000.000000	94.403	-41.2734
17250.000000	94.428	-46.4652
17500.000000	93.009	-54.3578
17750.000000	89.919	-50.1343
18000.000000	86.622	-32.9941
18250.000000	84.817	-12.9645
18500.000000	84.324	4.4382
18750.000000	84.329	18.6198
19000.000000	84.463	30.2759
19250.000000	84.600	40.1942
19500.000000	84.730	48.9183
19750.000000	84.872	56.0829
