* Measurement data measured by REW V5.20.9
* Source: Input device not selected, no input selected, R, volume: no control
* Format: 256k Log Swept Sine, 1 sweep at 0.0 dBFS with no timing reference
* Dated: 06/10/2022 3:28:14 PM
* REW Settings:
*  C-weighting compensation: Off
*  Target level: 75.0 dB
* Note: ; 
* Measurement: AK Pathfinder R
* Smoothing: 1/24 octave
* Frequency Step: 1/48 octave
* Start Frequency: 20.000 Hz
*
* Freq(Hz)	SPL(dB)	Phase(degrees)
20.000000	103.946	5.5210
20.299999	103.935	5.1184
20.600000	103.924	4.7169
20.900000	103.913	4.3143
21.200001	103.901	3.9122
21.400000	103.893	3.6472
21.799999	103.874	3.1293
22.000000	103.865	2.8783
22.400000	103.845	2.3933
22.700001	103.831	2.0422
23.000000	103.818	1.6979
23.299999	103.805	1.3577
23.600000	103.792	1.0205
24.000000	103.775	0.5761
24.299999	103.761	0.2489
24.700001	103.743	-0.1766
25.000000	103.729	-0.4873
25.400000	103.711	-0.8928
25.799999	103.693	-1.2922
26.200001	103.675	-1.6875
26.500000	103.660	-1.9805
26.900000	103.640	-2.3638
27.200001	103.624	-2.6442
27.600000	103.603	-3.0081
28.000000	103.582	-3.3624
28.500000	103.555	-3.7963
29.000000	103.528	-4.2242
29.500000	103.501	-4.6457
30.000000	103.472	-5.0569
30.400000	103.449	-5.3758
30.700001	103.432	-5.6089
31.100000	103.410	-5.9128
31.500000	103.389	-6.2118
32.000000	103.362	-6.5813
32.500000	103.337	-6.9479
33.000000	103.312	-7.3133
33.500000	103.286	-7.6799
34.000000	103.258	-8.0453
34.500000	103.228	-8.3974
35.000000	103.196	-8.7241
35.500000	103.165	-9.0268
36.000000	103.136	-9.3212
36.500000	103.108	-9.6179
37.000000	103.077	-9.9091
37.500000	103.045	-10.1775
38.200001	103.005	-10.5128
38.700001	102.982	-10.7524
39.500000	102.949	-11.1935
40.000000	102.925	-11.4939
40.599998	102.892	-11.8430
41.200001	102.858	-12.1647
41.799999	102.826	-12.4780
42.500000	102.789	-12.8527
43.099998	102.754	-13.1644
43.700001	102.718	-13.4530
44.400002	102.679	-13.7821
45.000000	102.644	-14.0709
45.500000	102.612	-14.3004
46.200001	102.568	-14.5901
46.799999	102.533	-14.8350
47.500000	102.490	-15.1335
48.200001	102.444	-15.3951
48.700001	102.414	-15.5500
49.400002	102.384	-15.7856
50.000000	102.360	-16.0494
50.799999	102.319	-16.4352
51.500000	102.277	-16.7379
52.200001	102.238	-17.0182
53.000000	102.192	-17.3309
53.799999	102.146	-17.6154
54.500000	102.108	-17.8460
55.200001	102.071	-18.0758
56.000000	102.027	-18.3338
57.000000	101.972	-18.6368
58.000000	101.917	-18.9214
59.000000	101.861	-19.1899
60.000000	101.808	-19.4583
60.799999	101.766	-19.6866
61.500000	101.727	-19.8911
62.200001	101.687	-20.0878
63.000000	101.640	-20.2955
64.000000	101.585	-20.5360
65.000000	101.533	-20.7740
66.000000	101.480	-21.0151
67.000000	101.425	-21.2468
68.000000	101.370	-21.4592
69.000000	101.315	-21.6620
70.000000	101.260	-21.8674
71.000000	101.205	-22.0640
72.000000	101.152	-22.2503
73.000000	101.101	-22.4346
74.000000	101.051	-22.6108
75.000000	101.002	-22.7783
76.199997	100.942	-22.9667
77.500000	100.876	-23.1578
78.800003	100.810	-23.3509
80.000000	100.749	-23.5349
81.199997	100.689	-23.7172
82.500000	100.625	-23.8943
83.800003	100.563	-24.0470
85.000000	100.505	-24.1693
86.199997	100.445	-24.2842
87.500000	100.377	-24.4263
88.500000	100.326	-24.5489
90.000000	100.252	-24.7459
91.199997	100.197	-24.8812
92.500000	100.143	-24.9761
93.800003	100.087	-25.0176
95.000000	100.027	-25.0312
96.199997	99.953	-25.0476
97.500000	99.861	-25.0811
98.800003	99.758	-25.1548
100.000000	99.676	-25.0940
101.500000	99.649	-25.1482
103.000000	99.630	-25.4999
104.400002	99.595	-25.7244
106.000000	99.546	-25.8177
107.500000	99.485	-25.8463
109.000000	99.414	-25.8766
110.599998	99.338	-25.9543
112.000000	99.275	-26.0469
113.800003	99.198	-26.1373
115.000000	99.147	-26.1519
117.199997	99.055	-26.1205
118.000000	99.021	-26.1138
120.599998	98.913	-26.1359
122.000000	98.856	-26.1597
124.099998	98.770	-26.1705
125.000000	98.733	-26.1642
126.500000	98.670	-26.1512
128.000000	98.608	-26.1494
131.500000	98.461	-26.1558
132.000000	98.440	-26.1489
134.000000	98.359	-26.1015
136.000000	98.277	-26.0298
138.000000	98.192	-25.9493
140.000000	98.102	-25.8649
143.000000	97.961	-25.7100
145.000000	97.865	-25.5819
147.500000	97.742	-25.3597
150.000000	97.611	-24.9685
152.500000	97.477	-24.3613
155.000000	97.355	-23.4875
157.500000	97.280	-22.3598
160.000000	97.288	-21.1730
162.500000	97.374	-20.3170
165.000000	97.483	-20.0299
167.500000	97.561	-20.2083
170.000000	97.589	-20.5812
172.500000	97.576	-20.9543
175.000000	97.540	-21.2485
177.500000	97.491	-21.4620
180.000000	97.435	-21.6081
182.500000	97.375	-21.7064
185.000000	97.312	-21.7657
187.500000	97.248	-21.7869
190.000000	97.185	-21.7751
192.500000	97.121	-21.7384
195.000000	97.058	-21.6786
197.500000	96.994	-21.5889
200.000000	96.932	-21.4745
203.000000	96.859	-21.3259
206.000000	96.790	-21.1676
209.000000	96.723	-20.9937
212.000000	96.657	-20.7985
214.000000	96.613	-20.6616
218.000000	96.530	-20.3860
220.000000	96.490	-20.2460
224.000000	96.413	-19.9500
227.000000	96.358	-19.7185
230.000000	96.303	-19.4810
233.000000	96.250	-19.2378
236.000000	96.199	-18.9976
240.000000	96.133	-18.6895
243.000000	96.085	-18.4623
247.000000	96.023	-18.1573
250.000000	95.977	-17.9262
254.000000	95.918	-17.6078
258.000000	95.860	-17.2798
262.000000	95.804	-16.9491
265.000000	95.763	-16.7010
269.000000	95.709	-16.3650
272.000000	95.671	-16.1127
276.000000	95.620	-15.7811
280.000000	95.570	-15.4496
285.000000	95.510	-15.0354
290.000000	95.450	-14.6071
295.000000	95.393	-14.1743
300.000000	95.339	-13.7384
304.000000	95.297	-13.3932
307.000000	95.268	-13.1379
311.000000	95.229	-12.7942
315.000000	95.192	-12.4393
320.000000	95.148	-11.9899
325.000000	95.108	-11.5466
330.000000	95.072	-11.1063
335.000000	95.038	-10.6810
340.000000	95.006	-10.2810
345.000000	94.973	-9.9038
350.000000	94.938	-9.5450
355.000000	94.908	-9.1864
360.000000	94.878	-8.8136
365.000000	94.847	-8.4451
370.000000	94.815	-8.0775
375.000000	94.783	-7.7092
382.000000	94.740	-7.1909
387.000000	94.710	-6.8158
395.000000	94.664	-6.2170
400.000000	94.637	-5.8458
406.000000	94.604	-5.4030
412.000000	94.573	-4.9618
418.000000	94.543	-4.5182
425.000000	94.509	-3.9929
431.000000	94.482	-3.5376
437.000000	94.455	-3.0793
444.000000	94.427	-2.5438
450.000000	94.405	-2.0917
455.000000	94.388	-1.7219
462.000000	94.366	-1.2114
468.000000	94.349	-0.7785
475.000000	94.330	-0.2830
482.000000	94.313	0.2057
487.000000	94.301	0.5529
494.000000	94.284	1.0353
500.000000	94.270	1.4464
508.000000	94.253	1.9894
515.000000	94.239	2.4554
522.000000	94.226	2.9150
530.000000	94.213	3.4294
538.000000	94.200	3.9362
545.000000	94.190	4.3764
552.000000	94.180	4.8130
560.000000	94.169	5.3059
570.000000	94.156	5.9172
580.000000	94.144	6.5164
590.000000	94.132	7.1019
600.000000	94.122	7.6758
608.000000	94.114	8.1277
615.000000	94.107	8.5149
622.000000	94.100	8.8962
630.000000	94.091	9.3279
640.000000	94.080	9.8639
650.000000	94.068	10.3891
660.000000	94.056	10.9046
670.000000	94.043	11.4105
680.000000	94.028	11.9077
690.000000	94.012	12.4015
700.000000	93.993	12.8890
710.000000	93.973	13.3735
720.000000	93.951	13.8561
730.000000	93.925	14.3394
740.000000	93.896	14.8268
750.000000	93.862	15.3228
762.000000	93.817	15.9368
775.000000	93.763	16.6177
788.000000	93.701	17.3293
800.000000	93.637	18.0232
812.000000	93.568	18.7781
825.000000	93.486	19.6725
838.000000	93.396	20.6494
850.000000	93.309	21.6454
862.000000	93.220	22.7489
875.000000	93.124	24.0752
885.000000	93.053	25.2007
900.000000	92.953	27.0704
912.000000	92.885	28.7266
925.000000	92.827	30.6796
938.000000	92.793	32.7772
950.000000	92.786	34.8325
962.000000	92.806	36.9791
975.000000	92.863	39.3744
988.000000	92.959	41.8011
1000.000000	93.084	44.0259
1015.000000	93.286	46.7275
1030.000000	93.537	49.2814
1044.000000	93.809	51.4869
1060.000000	94.156	53.7547
1075.000000	94.508	55.6117
1090.000000	94.877	57.1982
1106.000000	95.283	58.5897
1120.000000	95.641	59.5618
1138.000000	96.100	60.4957
1150.000000	96.401	60.9429
1172.000000	96.938	61.4266
1180.000000	97.126	61.5024
1206.000000	97.712	61.4600
1220.000000	98.008	61.2844
1241.000000	98.426	60.8475
1250.000000	98.596	60.6033
1265.000000	98.866	60.1397
1280.000000	99.121	59.6308
1315.000000	99.665	58.2635
1320.000000	99.737	58.0518
1340.000000	100.012	57.1908
1360.000000	100.267	56.3195
1380.000000	100.505	55.4282
1400.000000	100.729	54.5239
1430.000000	101.041	53.1966
1450.000000	101.238	52.3256
1475.000000	101.473	51.2332
1500.000000	101.701	50.1414
1525.000000	101.924	49.0389
1550.000000	102.143	47.9140
1575.000000	102.363	46.7223
1600.000000	102.578	45.4604
1625.000000	102.787	44.1430
1650.000000	102.987	42.7369
1675.000000	103.180	41.2041
1700.000000	103.363	39.5606
1725.000000	103.532	37.8055
1750.000000	103.683	35.9444
1775.000000	103.811	33.9881
1800.000000	103.915	31.9431
1825.000000	103.992	29.8258
1850.000000	104.037	27.6481
1875.000000	104.043	25.4944
1900.000000	104.021	23.4069
1925.000000	103.979	21.3063
1950.000000	103.919	19.1906
1975.000000	103.838	17.1697
2000.000000	103.726	15.2987
2030.000000	103.557	13.2089
2060.000000	103.361	11.2714
2090.000000	103.145	9.4999
2120.000000	102.913	7.9210
2140.000000	102.752	6.9655
2180.000000	102.420	5.2852
2200.000000	102.250	4.5638
2240.000000	101.908	3.3303
2270.000000	101.653	2.5703
2300.000000	101.402	1.9462
2330.000000	101.157	1.4459
2360.000000	100.918	1.0557
2400.000000	100.611	0.6855
2430.000000	100.388	0.5155
2470.000000	100.101	0.4115
2500.000000	99.895	0.4141
2540.000000	99.632	0.5190
2580.000000	99.381	0.7346
2620.000000	99.143	1.0524
2650.000000	98.972	1.3484
2690.000000	98.752	1.8463
2720.000000	98.593	2.2908
2760.000000	98.392	2.9572
2800.000000	98.207	3.7224
2850.000000	97.998	4.8013
2900.000000	97.814	6.0073
2950.000000	97.659	7.3299
3000.000000	97.534	8.7102
3040.000000	97.454	9.8851
3070.000000	97.405	10.7853
3110.000000	97.359	11.9897
3150.000000	97.335	13.2111
3200.000000	97.335	14.7347
3250.000000	97.366	16.2496
3300.000000	97.429	17.7401
3350.000000	97.524	19.1863
3400.000000	97.650	20.5753
3450.000000	97.806	21.9010
3500.000000	97.994	23.1519
3550.000000	98.214	24.3023
3600.000000	98.468	25.3383
3650.000000	98.757	26.2338
3700.000000	99.080	26.9667
3750.000000	99.436	27.5165
3820.000000	99.997	27.8704
3870.000000	100.441	27.7650
3950.000000	101.221	26.7947
4000.000000	101.740	25.5540
4060.000000	102.374	23.2661
4120.000000	102.987	19.9432
4180.000000	103.523	15.4958
4250.000000	103.964	9.0090
4310.000000	104.114	2.7438
4370.000000	104.025	-3.5240
4440.000000	103.649	-9.9468
4500.000000	103.173	-14.1575
4550.000000	102.736	-16.6420
4620.000000	102.153	-18.7645
4680.000000	101.741	-19.6974
4750.000000	101.384	-20.2797
4820.000000	101.143	-20.7626
4870.000000	101.018	-21.1952
4940.000000	100.875	-22.0103
5000.000000	100.759	-22.8833
5080.000000	100.586	-24.1805
5150.000000	100.406	-25.3093
5220.000000	100.200	-26.3203
5300.000000	99.936	-27.2311
5380.000000	99.654	-27.8132
5450.000000	99.403	-28.0348
5520.000000	99.157	-27.9940
5600.000000	98.890	-27.6344
5700.000000	98.590	-26.7543
5800.000000	98.341	-25.4504
5900.000000	98.156	-23.7827
6000.000000	98.042	-21.8337
6080.000000	98.001	-20.1326
6150.000000	98.002	-18.5854
6220.000000	98.034	-17.0043
6300.000000	98.107	-15.1630
6400.000000	98.246	-12.8173
6500.000000	98.439	-10.4185
6600.000000	98.688	-7.9689
6700.000000	98.997	-5.4687
6800.000000	99.374	-2.9356
6900.000000	99.826	-0.3959
7000.000000	100.365	2.0974
7100.000000	101.009	4.4402
7200.000000	101.770	6.4973
7300.000000	102.661	8.0775
7400.000000	103.696	8.9678
7500.000000	104.893	8.7961
7620.000000	106.495	6.1647
7750.000000	108.170	-1.1959
7880.000000	109.411	-13.7064
8000.000000	109.798	-29.1205
8120.000000	109.203	-44.3026
8250.000000	107.716	-55.6432
8380.000000	105.901	-60.9148
8500.000000	104.295	-61.8654
8620.000000	102.891	-60.4312
8750.000000	101.621	-57.1785
8850.000000	100.810	-53.8674
9000.000000	99.843	-47.9907
9120.000000	99.276	-42.7452
9250.000000	98.876	-36.8038
9380.000000	98.707	-31.0002
9500.000000	98.732	-26.2030
9620.000000	98.870	-22.2711
9750.000000	99.062	-19.0405
9880.000000	99.240	-16.5970
10000.000000	99.386	-14.7347
10150.000000	99.592	-12.8134
10300.000000	99.853	-11.5859
10440.000000	100.116	-11.4224
10600.000000	100.354	-12.7560
10750.000000	100.399	-15.4282
10900.000000	100.172	-18.8875
11060.000000	99.587	-22.3611
11200.000000	98.821	-24.3716
11380.000000	97.612	-24.8958
11500.000000	96.744	-23.9261
11720.000000	95.180	-19.8312
11800.000000	94.648	-17.7390
12060.000000	93.120	-9.3201
12200.000000	92.451	-4.0728
12410.000000	91.688	3.9673
12500.000000	91.441	7.3138
12650.000000	91.123	12.6082
12800.000000	90.917	17.2607
13150.000000	90.552	22.4501
13200.000000	90.432	22.3035
13400.000000	89.432	20.7991
13600.000000	87.338	23.8915
13800.000000	84.555	38.8319
14000.000000	82.691	62.5586
14300.000000	83.159	95.7529
14500.000000	84.319	112.1604
14750.000000	85.977	128.2420
15000.000000	87.861	140.8571
15250.000000	90.001	149.7903
15500.000000	92.269	153.6190
15750.000000	94.243	150.5713
16000.000000	95.391	141.2963
16250.000000	95.494	130.2379
16500.000000	94.819	122.0562
16750.000000	93.944	117.6207
17000.000000	93.330	113.9223
17250.000000	92.905	107.0441
17500.000000	92.115	95.5398
17750.000000	90.432	82.8064
18000.000000	87.765	74.3911
18250.000000	84.409	73.4440
18500.000000	80.889	79.4669
18750.000000	77.757	89.4161
19000.000000	75.158	101.2625
19250.000000	72.949	114.7389
19500.000000	71.075	129.3665
19750.000000	69.579	143.1681
