* Measurement data measured by REW V5.20.13
* Source: Primary Sound Capture Driver, no input selected, R, volume: no control
* Format: 256k Log Swept Sine, 1 sweep at 0.0 dBFS with no timing reference
* Dated: 09/11/2023 11:24:16 AM
* REW Settings:
*  C-weighting compensation: Off
*  Target level: 75.0 dB
* Note: ; 
* Measurement: Delta Airlines Earphones R
* Smoothing: 1/24 octave
* Frequency Step: 1/48 octave
* Start Frequency: 20.000 Hz
*
* Freq(Hz)	SPL(dB)	Phase(degrees)
20.000000	56.770	109.1848
20.299999	58.244	113.9500
20.600000	59.783	114.5726
20.900000	61.057	111.3434
21.200001	61.952	105.7130
21.400000	62.325	101.4297
21.799999	62.548	92.8926
22.000000	62.422	89.3931
22.400000	61.795	85.4134
22.700001	61.199	85.7339
23.000000	60.801	88.4201
23.299999	60.788	91.6246
23.600000	61.044	93.6333
24.000000	61.400	92.9100
24.299999	61.354	90.3758
24.700001	60.656	87.3581
25.000000	59.677	88.4540
25.400000	58.220	97.2103
25.799999	57.884	111.6159
26.200001	59.142	123.4425
26.500000	60.365	127.0558
26.900000	61.595	125.2407
27.200001	62.096	121.2317
27.600000	62.260	115.2709
28.000000	62.001	110.5571
28.500000	61.398	107.5703
29.000000	60.870	107.2548
29.500000	60.634	108.0602
30.000000	60.693	108.6003
30.400000	60.883	108.2927
30.700001	61.062	107.4495
31.100000	61.255	105.4852
31.500000	61.303	102.9814
32.000000	61.088	100.5746
32.500000	60.709	100.7451
33.000000	60.545	103.4598
33.500000	60.778	106.5047
34.000000	61.159	108.0220
34.500000	61.419	108.5704
35.000000	61.600	109.4716
35.500000	61.876	110.5912
36.000000	62.222	110.6496
36.500000	62.439	109.3302
37.000000	62.426	107.8464
37.500000	62.304	107.3463
38.200001	62.265	107.3516
38.700001	62.298	106.7686
39.500000	62.190	105.8638
40.000000	62.171	106.3214
40.599998	62.386	106.8530
41.200001	62.669	105.9905
41.799999	62.800	104.6344
42.500000	62.888	104.1973
43.099998	63.074	104.1476
43.700001	63.226	103.5998
44.400002	63.251	103.6451
45.000000	63.357	105.0025
45.500000	63.608	105.9614
46.200001	63.955	105.6365
46.799999	64.019	104.7839
47.500000	63.943	105.2328
48.200001	63.995	106.8649
48.700001	64.118	107.9239
49.400002	64.315	109.1004
50.000000	64.519	110.0339
50.799999	64.853	110.5824
51.500000	65.067	110.1083
52.200001	65.129	109.5424
53.000000	65.117	109.7422
53.799999	65.192	110.5960
54.500000	65.354	110.9893
55.200001	65.497	110.6676
56.000000	65.537	110.2031
57.000000	65.570	110.8622
58.000000	65.808	111.9473
59.000000	66.111	112.4084
60.000000	66.430	112.8865
60.799999	66.735	112.8014
61.500000	66.916	111.9468
62.200001	66.917	111.1575
63.000000	66.827	111.5065
64.000000	66.889	112.7737
65.000000	67.022	113.0994
66.000000	67.102	113.1231
67.000000	67.193	113.1369
68.000000	67.320	113.2568
69.000000	67.506	113.3690
70.000000	67.719	113.5884
71.000000	67.999	113.9016
72.000000	68.274	113.7586
73.000000	68.458	113.5549
74.000000	68.601	113.6466
75.000000	68.739	113.8159
76.199997	68.895	114.0194
77.500000	69.083	114.3174
78.800003	69.319	114.6544
80.000000	69.556	114.7907
81.199997	69.730	114.9574
82.500000	69.898	115.6272
83.800003	70.080	116.2797
85.000000	70.242	116.6620
86.199997	70.385	116.9008
87.500000	70.585	117.3953
88.500000	70.808	117.5510
90.000000	71.056	117.3030
91.199997	71.209	117.9468
92.500000	71.512	118.7456
93.800003	71.777	118.3401
95.000000	71.860	117.8239
96.199997	71.909	118.0651
97.500000	72.052	118.8581
98.800003	72.272	119.7255
100.000000	72.494	120.3947
101.500000	72.710	121.0109
103.000000	72.856	121.3531
104.400002	72.921	121.2217
106.000000	72.988	120.9037
107.500000	73.142	120.3543
109.000000	73.350	119.8222
110.599998	73.646	119.8246
112.000000	73.930	120.0192
113.800003	74.233	120.3158
115.000000	74.371	120.4666
117.199997	74.540	121.1135
118.000000	74.623	121.4047
120.599998	74.897	121.6547
122.000000	75.009	121.7490
124.099998	75.206	121.8805
125.000000	75.303	121.7867
126.500000	75.462	121.5566
128.000000	75.638	121.5001
131.500000	76.123	122.1686
132.000000	76.193	122.2762
134.000000	76.443	122.4882
136.000000	76.651	122.4189
138.000000	76.856	122.4250
140.000000	77.094	122.6451
143.000000	77.420	122.9490
145.000000	77.617	122.9917
147.500000	77.883	122.7333
150.000000	78.182	122.6593
152.500000	78.470	122.8443
155.000000	78.685	123.0312
157.500000	78.901	123.1533
160.000000	79.152	122.9601
162.500000	79.406	122.9492
165.000000	79.696	123.1568
167.500000	79.965	123.1875
170.000000	80.176	123.0866
172.500000	80.367	122.9952
175.000000	80.598	122.9569
177.500000	80.853	123.0025
180.000000	81.115	123.2097
182.500000	81.374	123.2736
185.000000	81.612	123.1090
187.500000	81.834	122.8972
190.000000	82.050	122.8237
192.500000	82.279	122.7882
195.000000	82.516	122.5894
197.500000	82.737	122.3628
200.000000	82.966	122.2871
203.000000	83.257	122.1875
206.000000	83.546	122.0642
209.000000	83.814	121.9324
212.000000	84.074	121.7292
214.000000	84.252	121.4559
218.000000	84.606	120.9394
220.000000	84.788	120.8340
224.000000	85.147	120.5874
227.000000	85.408	120.2766
230.000000	85.679	119.8918
233.000000	85.948	119.4961
236.000000	86.206	119.1247
240.000000	86.535	118.5969
243.000000	86.780	118.1655
247.000000	87.114	117.5662
250.000000	87.373	117.0911
254.000000	87.718	116.3904
258.000000	88.045	115.6884
262.000000	88.363	115.0145
265.000000	88.604	114.4813
269.000000	88.923	113.7470
272.000000	89.161	113.1631
276.000000	89.479	112.2750
280.000000	89.788	111.3451
285.000000	90.153	110.2852
290.000000	90.510	109.1764
295.000000	90.863	108.0282
300.000000	91.209	106.8871
304.000000	91.487	106.0007
307.000000	91.698	105.3453
311.000000	91.985	104.4296
315.000000	92.274	103.4419
320.000000	92.633	102.1203
325.000000	92.986	100.7370
330.000000	93.327	99.2877
335.000000	93.655	97.7385
340.000000	93.972	96.1266
345.000000	94.274	94.5085
350.000000	94.565	92.9130
355.000000	94.849	91.3406
360.000000	95.131	89.7687
365.000000	95.412	88.1898
370.000000	95.694	86.5724
375.000000	95.975	84.8969
382.000000	96.360	82.4496
387.000000	96.627	80.6358
395.000000	97.035	77.6417
400.000000	97.277	75.7160
406.000000	97.555	73.3671
412.000000	97.818	70.9835
418.000000	98.066	68.5731
425.000000	98.340	65.7382
431.000000	98.562	63.2971
437.000000	98.773	60.8539
444.000000	99.004	58.0016
450.000000	99.189	55.5546
455.000000	99.334	53.5215
462.000000	99.524	50.6865
468.000000	99.679	48.2676
475.000000	99.849	45.4631
482.000000	100.008	42.6743
487.000000	100.116	40.6895
494.000000	100.260	37.9146
500.000000	100.375	35.5273
508.000000	100.520	32.3408
515.000000	100.637	29.5683
522.000000	100.747	26.8248
530.000000	100.867	23.7203
538.000000	100.981	20.5992
545.000000	101.080	17.8379
552.000000	101.178	15.0438
560.000000	101.285	11.7814
570.000000	101.408	7.5492
580.000000	101.513	3.1227
590.000000	101.590	-1.5149
600.000000	101.627	-6.3727
608.000000	101.618	-10.3896
615.000000	101.580	-13.9666
622.000000	101.512	-17.5720
630.000000	101.397	-21.7001
640.000000	101.195	-26.8272
650.000000	100.933	-31.8599
660.000000	100.612	-36.7369
670.000000	100.227	-41.3837
680.000000	99.785	-45.7549
690.000000	99.289	-49.8204
700.000000	98.735	-53.5470
710.000000	98.110	-56.8099
720.000000	97.406	-59.2344
730.000000	96.692	-60.2203
740.000000	96.174	-59.9932
750.000000	95.959	-60.2914
762.000000	95.780	-62.6787
775.000000	95.373	-65.9886
788.000000	94.803	-68.4459
800.000000	94.274	-69.8431
812.000000	93.801	-70.9338
825.000000	93.291	-72.1519
838.000000	92.773	-73.2703
850.000000	92.307	-74.0719
862.000000	91.857	-74.6520
875.000000	91.388	-75.1047
885.000000	91.041	-75.3591
900.000000	90.541	-75.5938
912.000000	90.163	-75.6616
925.000000	89.777	-75.6702
938.000000	89.410	-75.6306
950.000000	89.087	-75.5470
962.000000	88.778	-75.4335
975.000000	88.462	-75.2900
988.000000	88.162	-75.1245
1000.000000	87.897	-74.9633
1015.000000	87.580	-74.7647
1030.000000	87.279	-74.5698
1044.000000	87.011	-74.4070
1060.000000	86.718	-74.2393
1075.000000	86.455	-74.1096
1090.000000	86.203	-74.0254
1106.000000	85.943	-73.9556
1120.000000	85.723	-73.9326
1138.000000	85.444	-73.9517
1150.000000	85.258	-73.9590
1172.000000	84.920	-73.9719
1180.000000	84.799	-73.9819
1206.000000	84.407	-74.1160
1220.000000	84.199	-74.1825
1241.000000	83.888	-74.2960
1250.000000	83.755	-74.3729
1265.000000	83.532	-74.5006
1280.000000	83.307	-74.6151
1315.000000	82.761	-74.8221
1320.000000	82.683	-74.8461
1340.000000	82.372	-74.9481
1360.000000	82.051	-75.0087
1380.000000	81.728	-75.0364
1400.000000	81.411	-75.0247
1430.000000	80.933	-74.9015
1450.000000	80.612	-74.7426
1475.000000	80.208	-74.4821
1500.000000	79.799	-74.1620
1525.000000	79.400	-73.7485
1550.000000	79.009	-73.2596
1575.000000	78.624	-72.6937
1600.000000	78.247	-72.0807
1625.000000	77.872	-71.4349
1650.000000	77.501	-70.7092
1675.000000	77.142	-69.9399
1700.000000	76.787	-69.1826
1725.000000	76.435	-68.3934
1750.000000	76.088	-67.5562
1775.000000	75.744	-66.6840
1800.000000	75.401	-65.8090
1825.000000	75.056	-64.9034
1850.000000	74.715	-63.9622
1875.000000	74.375	-63.0152
1900.000000	74.037	-62.0359
1925.000000	73.696	-61.0225
1950.000000	73.347	-59.9539
1975.000000	72.990	-58.7770
2000.000000	72.635	-57.4899
2030.000000	72.217	-55.8622
2060.000000	71.809	-54.1937
2090.000000	71.395	-52.4502
2120.000000	70.970	-50.5193
2140.000000	70.681	-49.0972
2180.000000	70.111	-45.8673
2200.000000	69.839	-44.0367
2240.000000	69.361	-39.8810
2270.000000	69.090	-36.5548
2300.000000	68.905	-33.3745
2330.000000	68.788	-30.5188
2360.000000	68.712	-28.0970
2400.000000	68.628	-25.6049
2430.000000	68.531	-24.2757
2470.000000	68.317	-23.0525
2500.000000	68.077	-22.3016
2540.000000	67.647	-21.2310
2580.000000	67.096	-19.8176
2620.000000	66.439	-17.8655
2650.000000	65.895	-16.0051
2690.000000	65.084	-12.7728
2720.000000	64.414	-9.6824
2760.000000	63.433	-4.4797
2800.000000	62.352	2.7538
2850.000000	61.058	16.1626
2900.000000	60.330	33.9991
2950.000000	60.610	53.8195
3000.000000	61.956	71.9807
3040.000000	63.508	83.7557
3070.000000	64.797	90.7170
3110.000000	66.558	97.4837
3150.000000	68.269	101.6777
3200.000000	70.263	104.2496
3250.000000	72.074	104.6697
3300.000000	73.712	103.4576
3350.000000	75.176	101.0345
3400.000000	76.500	97.7390
3450.000000	77.702	93.5169
3500.000000	78.752	88.2348
3550.000000	79.603	81.9740
3600.000000	80.207	75.0157
3650.000000	80.537	67.9171
3700.000000	80.615	61.3172
3750.000000	80.502	55.6761
3820.000000	80.157	49.6640
3870.000000	79.854	46.6051
3950.000000	79.384	43.4262
4000.000000	79.142	42.1593
4060.000000	78.905	40.9737
4120.000000	78.704	39.9117
4180.000000	78.508	38.7786
4250.000000	78.184	37.3498
4310.000000	77.732	37.0516
4370.000000	77.274	39.0168
4440.000000	77.147	42.8676
4500.000000	77.347	45.3994
4550.000000	77.580	46.5891
4620.000000	77.890	47.3012
4680.000000	78.131	47.5269
4750.000000	78.407	47.5864
4820.000000	78.695	47.4269
4870.000000	78.910	47.1468
4940.000000	79.223	46.4753
5000.000000	79.498	45.6017
5080.000000	79.864	43.9616
5150.000000	80.171	42.0585
5220.000000	80.449	39.7144
5300.000000	80.712	36.5181
5380.000000	80.896	32.8455
5450.000000	80.976	29.3616
5520.000000	80.972	25.7745
5600.000000	80.863	21.7460
5700.000000	80.585	17.0913
5800.000000	80.182	13.0892
5900.000000	79.692	9.8813
6000.000000	79.154	7.5005
6080.000000	78.714	6.1789
6150.000000	78.333	5.4119
6220.000000	77.965	4.9653
6300.000000	77.565	4.7870
6400.000000	77.104	4.9738
6500.000000	76.682	5.5990
6600.000000	76.313	6.6873
6700.000000	76.031	8.2041
6800.000000	75.861	9.9122
6900.000000	75.798	11.5259
7000.000000	75.825	12.9404
7100.000000	75.936	14.0973
7200.000000	76.128	14.9022
7300.000000	76.398	15.2521
7400.000000	76.744	15.0419
7500.000000	77.164	14.1112
7620.000000	77.747	11.6512
7750.000000	78.391	6.7174
7880.000000	78.882	-1.0361
8000.000000	79.003	-10.4201
8120.000000	78.660	-20.7579
8250.000000	77.738	-30.9821
8380.000000	76.390	-38.4141
8500.000000	74.990	-42.3043
8620.000000	73.661	-43.8795
8750.000000	72.466	-44.4034
8850.000000	71.697	-44.8755
9000.000000	70.614	-45.7830
9120.000000	69.832	-46.4818
9250.000000	69.169	-48.9446
9380.000000	68.342	-55.2943
9500.000000	66.785	-61.0103
9620.000000	64.394	-59.5424
9750.000000	61.874	-50.0530
9880.000000	60.401	-39.1565
10000.000000	59.720	-30.9688
10150.000000	59.132	-22.8999
10300.000000	58.568	-16.0369
10440.000000	58.041	-9.9761
10600.000000	57.440	-2.7997
10750.000000	56.852	4.5226
10900.000000	56.280	12.8987
11060.000000	55.829	23.9552
11200.000000	55.781	35.8002
11380.000000	56.885	52.9207
11500.000000	58.548	62.7730
11720.000000	61.820	67.9272
11800.000000	62.624	65.5590
12060.000000	63.636	56.1794
12200.000000	63.866	54.7023
12410.000000	64.578	53.6426
12500.000000	64.903	52.4140
12650.000000	65.312	49.8195
12800.000000	65.681	47.7199
13150.000000	66.625	39.8067
13200.000000	66.672	38.4466
13400.000000	66.784	34.5530
13600.000000	67.247	31.9291
13800.000000	68.053	26.4713
14000.000000	68.616	16.2502
14300.000000	68.073	-2.8250
14500.000000	66.765	-11.9392
14750.000000	64.629	-15.1193
15000.000000	62.837	-9.3695
15250.000000	62.641	1.3718
15500.000000	64.435	8.6963
15750.000000	66.842	5.5317
16000.000000	68.688	-8.2655
16250.000000	69.592	-28.3811
16500.000000	69.572	-50.5643
16750.000000	68.738	-72.3081
17000.000000	67.187	-91.8547
17250.000000	65.047	-107.7405
17500.000000	62.529	-118.9615
17750.000000	59.933	-125.9667
18000.000000	57.499	-130.1199
18250.000000	55.323	-132.5101
18500.000000	53.454	-133.7123
18750.000000	51.952	-134.7720
19000.000000	50.768	-137.7379
19250.000000	49.549	-143.1391
19500.000000	47.950	-148.1032
19750.000000	46.123	-150.3448
