* Measurement data measured by REW V5.20.13
* Source: Primary Sound Capture Driver, no input selected, R, volume: no control
* Format: 256k Log Swept Sine, 1 sweep at -12.0 dBFS with no timing reference
* Dated: 01/11/2023 12:57:17 PM
* REW Settings:
*  C-weighting compensation: Off
*  Target level: 75.0 dB
* Note: ; 
* Measurement: Letshuoer EJ07M R
* Smoothing: 1/24 octave
* Frequency Step: 1/48 octave
* Start Frequency: 20.000 Hz
*
* Freq(Hz)	SPL(dB)	Phase(degrees)
20.000000	103.544	166.6449
20.299999	103.507	166.3602
20.600000	103.476	166.1263
20.900000	103.456	165.9146
21.200001	103.448	165.6825
21.400000	103.447	165.4938
21.799999	103.447	165.0192
22.000000	103.444	164.7354
22.400000	103.426	164.1105
22.700001	103.398	163.6439
23.000000	103.360	163.2300
23.299999	103.318	162.8918
23.600000	103.278	162.6239
24.000000	103.237	162.3330
24.299999	103.215	162.1137
24.700001	103.192	161.7674
25.000000	103.173	161.4604
25.400000	103.138	161.0203
25.799999	103.092	160.6079
26.200001	103.040	160.2648
26.500000	103.004	160.0482
26.900000	102.960	159.7827
27.200001	102.931	159.5780
27.600000	102.894	159.2852
28.000000	102.857	158.9832
28.500000	102.810	158.6236
29.000000	102.772	158.2782
29.500000	102.745	157.8943
30.000000	102.722	157.4270
30.400000	102.701	156.9998
30.700001	102.681	156.6648
31.100000	102.650	156.2242
31.500000	102.614	155.8094
32.000000	102.568	155.3395
32.500000	102.523	154.9178
33.000000	102.480	154.5292
33.500000	102.438	154.1646
34.000000	102.395	153.8249
34.500000	102.352	153.5129
35.000000	102.308	153.2240
35.500000	102.264	152.9442
36.000000	102.219	152.6626
36.500000	102.171	152.3787
37.000000	102.121	152.0992
37.500000	102.069	151.8256
38.200001	101.998	151.4315
38.700001	101.948	151.1244
39.500000	101.862	150.6079
40.000000	101.807	150.3038
40.599998	101.744	149.9661
41.200001	101.688	149.6300
41.799999	101.633	149.2929
42.500000	101.570	148.9428
43.099998	101.521	148.6839
43.700001	101.477	148.4290
44.400002	101.425	148.1389
45.000000	101.382	147.9021
45.500000	101.344	147.6840
46.200001	101.275	147.3754
46.799999	101.204	147.2484
47.500000	101.149	147.2736
48.200001	101.139	147.0950
48.700001	101.125	146.6971
49.400002	101.050	146.0223
50.000000	100.952	145.6605
50.799999	100.842	145.4575
51.500000	100.773	145.2426
52.200001	100.703	144.9702
53.000000	100.626	144.6946
53.799999	100.557	144.4045
54.500000	100.496	144.1343
55.200001	100.435	143.8904
56.000000	100.368	143.6317
57.000000	100.286	143.3202
58.000000	100.207	143.0222
59.000000	100.125	142.7163
60.000000	100.038	142.4460
60.799999	99.970	142.2602
61.500000	99.913	142.0916
62.200001	99.854	141.9130
63.000000	99.786	141.7184
64.000000	99.703	141.4896
65.000000	99.620	141.2511
66.000000	99.536	141.0201
67.000000	99.453	140.8042
68.000000	99.370	140.5829
69.000000	99.284	140.3642
70.000000	99.197	140.1795
71.000000	99.114	140.0122
72.000000	99.035	139.8195
73.000000	98.951	139.6391
74.000000	98.871	139.5245
75.000000	98.802	139.3901
76.199997	98.713	139.1830
77.500000	98.610	139.0649
78.800003	98.518	138.9752
80.000000	98.433	138.8439
81.199997	98.342	138.6971
82.500000	98.242	138.5363
83.800003	98.141	138.3620
85.000000	98.047	138.1921
86.199997	97.954	138.0447
87.500000	97.858	137.9121
88.500000	97.786	137.8184
90.000000	97.676	137.6989
91.199997	97.589	137.6384
92.500000	97.497	137.5774
93.800003	97.407	137.4952
95.000000	97.323	137.4140
96.199997	97.241	137.3383
97.500000	97.151	137.2709
98.800003	97.064	137.2421
100.000000	96.983	137.2085
101.500000	96.873	137.2180
103.000000	96.766	137.2645
104.400002	96.670	137.2768
106.000000	96.558	137.2749
107.500000	96.456	137.2994
109.000000	96.358	137.3400
110.599998	96.253	137.4066
112.000000	96.161	137.4858
113.800003	96.040	137.6049
115.000000	95.958	137.6918
117.199997	95.808	137.8571
118.000000	95.754	137.9225
120.599998	95.579	138.1478
122.000000	95.486	138.3078
124.099998	95.351	138.5725
125.000000	95.292	138.6971
126.500000	95.191	138.9508
128.000000	95.090	139.2523
131.500000	94.851	140.1790
132.000000	94.819	140.3548
134.000000	94.705	141.1599
136.000000	94.625	142.1117
138.000000	94.600	143.1216
140.000000	94.636	143.9208
143.000000	94.730	144.3966
145.000000	94.771	144.3215
147.500000	94.776	143.9858
150.000000	94.723	143.5909
152.500000	94.639	143.3192
155.000000	94.542	143.1409
157.500000	94.439	143.0599
160.000000	94.333	143.0885
162.500000	94.228	143.2089
165.000000	94.125	143.3857
167.500000	94.026	143.5953
170.000000	93.930	143.8149
172.500000	93.835	144.0425
175.000000	93.744	144.2881
177.500000	93.658	144.5557
180.000000	93.575	144.8502
182.500000	93.494	145.1662
185.000000	93.414	145.4926
187.500000	93.339	145.8142
190.000000	93.265	146.1329
192.500000	93.192	146.4601
195.000000	93.121	146.7986
197.500000	93.054	147.1382
200.000000	92.991	147.4700
203.000000	92.919	147.8784
206.000000	92.848	148.2855
209.000000	92.776	148.6997
212.000000	92.708	149.1765
214.000000	92.669	149.5190
218.000000	92.588	150.1953
220.000000	92.548	150.5193
224.000000	92.479	151.1170
227.000000	92.435	151.5717
230.000000	92.398	152.0510
233.000000	92.368	152.5216
236.000000	92.342	152.9642
240.000000	92.309	153.4910
243.000000	92.284	153.8279
247.000000	92.248	154.2214
250.000000	92.221	154.5101
254.000000	92.184	154.9176
258.000000	92.145	155.3174
262.000000	92.108	155.7092
265.000000	92.079	156.0152
269.000000	92.042	156.4166
272.000000	92.017	156.7057
276.000000	91.983	157.1028
280.000000	91.949	157.5107
285.000000	91.910	157.9915
290.000000	91.873	158.4373
295.000000	91.840	158.9156
300.000000	91.808	159.4221
304.000000	91.783	159.8134
307.000000	91.766	160.0942
311.000000	91.744	160.4544
315.000000	91.722	160.8065
320.000000	91.697	161.2551
325.000000	91.675	161.7030
330.000000	91.654	162.1367
335.000000	91.634	162.5567
340.000000	91.615	162.9537
345.000000	91.597	163.3399
350.000000	91.580	163.7296
355.000000	91.566	164.1180
360.000000	91.552	164.5081
365.000000	91.539	164.8945
370.000000	91.526	165.2762
375.000000	91.513	165.6562
382.000000	91.500	166.1732
387.000000	91.494	166.5417
395.000000	91.488	167.1246
400.000000	91.488	167.4716
406.000000	91.491	167.8545
412.000000	91.494	168.1966
418.000000	91.496	168.5113
425.000000	91.496	168.8571
431.000000	91.493	169.1429
437.000000	91.488	169.4279
444.000000	91.481	169.7550
450.000000	91.475	170.0302
455.000000	91.470	170.2587
462.000000	91.462	170.5812
468.000000	91.455	170.8695
475.000000	91.447	171.2153
482.000000	91.439	171.5522
487.000000	91.434	171.7932
494.000000	91.427	172.1231
500.000000	91.421	172.3865
508.000000	91.413	172.7329
515.000000	91.407	173.0443
522.000000	91.403	173.3679
530.000000	91.398	173.7449
538.000000	91.392	174.1094
545.000000	91.387	174.4185
552.000000	91.381	174.7301
560.000000	91.376	175.0919
570.000000	91.370	175.5406
580.000000	91.364	175.9790
590.000000	91.359	176.4125
600.000000	91.357	176.8469
608.000000	91.354	177.1981
615.000000	91.353	177.5104
622.000000	91.352	177.8270
630.000000	91.349	178.1909
640.000000	91.347	178.6484
650.000000	91.346	179.1033
660.000000	91.344	179.5558
670.000000	91.345	-179.9927
680.000000	91.348	-179.5366
690.000000	91.352	-179.0606
700.000000	91.357	-178.5737
710.000000	91.362	-178.1057
720.000000	91.368	-177.6386
730.000000	91.375	-177.1573
740.000000	91.383	-176.6683
750.000000	91.394	-176.1677
762.000000	91.408	-175.5584
775.000000	91.428	-174.9129
788.000000	91.452	-174.2595
800.000000	91.479	-173.6504
812.000000	91.507	-173.0330
825.000000	91.540	-172.3539
838.000000	91.578	-171.6795
850.000000	91.617	-171.0563
862.000000	91.662	-170.4415
875.000000	91.715	-169.7825
885.000000	91.758	-169.2773
900.000000	91.827	-168.5265
912.000000	91.889	-167.9385
925.000000	91.959	-167.3151
938.000000	92.034	-166.7137
950.000000	92.107	-166.1801
962.000000	92.185	-165.6609
975.000000	92.273	-165.1228
988.000000	92.365	-164.6218
1000.000000	92.452	-164.1880
1015.000000	92.564	-163.6813
1030.000000	92.679	-163.2179
1044.000000	92.788	-162.8256
1060.000000	92.914	-162.4289
1075.000000	93.032	-162.1048
1090.000000	93.151	-161.8209
1106.000000	93.279	-161.5650
1120.000000	93.391	-161.3847
1138.000000	93.533	-161.2130
1150.000000	93.625	-161.1263
1172.000000	93.790	-161.0088
1180.000000	93.848	-160.9802
1206.000000	94.031	-160.9488
1220.000000	94.127	-160.9692
1241.000000	94.265	-161.0298
1250.000000	94.323	-161.0615
1265.000000	94.416	-161.1231
1280.000000	94.506	-161.2010
1315.000000	94.705	-161.4220
1320.000000	94.733	-161.4567
1340.000000	94.838	-161.6000
1360.000000	94.940	-161.7477
1380.000000	95.038	-161.8995
1400.000000	95.134	-162.0593
1430.000000	95.274	-162.3064
1450.000000	95.361	-162.4680
1475.000000	95.466	-162.6506
1500.000000	95.572	-162.8354
1525.000000	95.678	-163.0581
1550.000000	95.782	-163.2669
1575.000000	95.880	-163.4447
1600.000000	95.977	-163.6263
1625.000000	96.076	-163.8258
1650.000000	96.176	-164.0390
1675.000000	96.274	-164.2483
1700.000000	96.372	-164.4541
1725.000000	96.470	-164.6720
1750.000000	96.570	-164.9047
1775.000000	96.671	-165.1498
1800.000000	96.771	-165.4050
1825.000000	96.871	-165.6693
1850.000000	96.972	-165.9544
1875.000000	97.072	-166.2628
1900.000000	97.171	-166.5775
1925.000000	97.270	-166.9043
1950.000000	97.370	-167.2650
1975.000000	97.471	-167.6569
2000.000000	97.573	-168.0697
2030.000000	97.692	-168.5931
2060.000000	97.807	-169.1448
2090.000000	97.919	-169.7319
2120.000000	98.027	-170.3587
2140.000000	98.097	-170.7928
2180.000000	98.233	-171.7074
2200.000000	98.300	-172.1947
2240.000000	98.427	-173.2054
2270.000000	98.515	-173.9875
2300.000000	98.597	-174.7997
2330.000000	98.672	-175.6327
2360.000000	98.742	-176.4771
2400.000000	98.824	-177.6223
2430.000000	98.878	-178.4864
2470.000000	98.940	-179.6315
2500.000000	98.979	179.5187
2540.000000	99.023	178.4024
2580.000000	99.064	177.2933
2620.000000	99.103	176.1702
2650.000000	99.130	175.3199
2690.000000	99.159	174.1689
2720.000000	99.173	173.2850
2760.000000	99.182	172.0826
2800.000000	99.180	170.8547
2850.000000	99.161	169.3054
2900.000000	99.122	167.7835
2950.000000	99.065	166.3072
3000.000000	98.991	164.9002
3040.000000	98.921	163.8342
3070.000000	98.862	163.0722
3110.000000	98.779	162.1082
3150.000000	98.692	161.1974
3200.000000	98.576	160.1372
3250.000000	98.447	159.1916
3300.000000	98.309	158.3547
3350.000000	98.171	157.6016
3400.000000	98.038	156.9380
3450.000000	97.907	156.3762
3500.000000	97.774	155.9163
3550.000000	97.641	155.5582
3600.000000	97.511	155.2932
3650.000000	97.388	155.1135
3700.000000	97.274	155.0199
3750.000000	97.171	155.0033
3820.000000	97.046	155.0888
3870.000000	96.974	155.2097
3950.000000	96.893	155.4423
4000.000000	96.863	155.5913
4060.000000	96.847	155.7460
4120.000000	96.852	155.8328
4180.000000	96.877	155.8279
4250.000000	96.925	155.6768
4310.000000	96.978	155.3955
4370.000000	97.038	154.9601
4440.000000	97.112	154.2340
4500.000000	97.174	153.4179
4550.000000	97.220	152.6055
4620.000000	97.268	151.2672
4680.000000	97.289	149.9489
4750.000000	97.279	148.2529
4820.000000	97.228	146.4280
4870.000000	97.167	145.0722
4940.000000	97.046	143.1489
5000.000000	96.908	141.5151
5080.000000	96.675	139.4141
5150.000000	96.427	137.6869
5220.000000	96.139	136.0874
5300.000000	95.758	134.4659
5380.000000	95.317	133.1698
5450.000000	94.889	132.4358
5520.000000	94.438	132.1957
5600.000000	93.926	132.5627
5700.000000	93.339	133.7887
5800.000000	92.837	135.5391
5900.000000	92.419	137.5789
6000.000000	92.070	139.7984
6080.000000	91.831	141.6849
6150.000000	91.649	143.4101
6220.000000	91.492	145.2004
6300.000000	91.348	147.3165
6400.000000	91.221	150.0378
6500.000000	91.156	152.8107
6600.000000	91.151	155.6099
6700.000000	91.211	158.4004
6800.000000	91.342	161.1425
6900.000000	91.544	163.7952
7000.000000	91.823	166.2914
7100.000000	92.186	168.5423
7200.000000	92.636	170.4392
7300.000000	93.173	171.8577
7400.000000	93.793	172.6494
7500.000000	94.486	172.6212
7620.000000	95.390	171.1494
7750.000000	96.373	167.2449
7880.000000	97.187	160.5267
8000.000000	97.602	152.1177
8120.000000	97.563	142.7778
8250.000000	97.005	133.5044
8380.000000	96.052	126.6078
8500.000000	94.998	122.7247
8620.000000	93.921	120.9330
8750.000000	92.825	120.8168
8850.000000	92.065	121.6783
9000.000000	91.080	124.0417
9120.000000	90.422	126.5656
9250.000000	89.834	129.6869
9380.000000	89.365	133.0314
9500.000000	89.018	136.2496
9620.000000	88.745	139.5974
9750.000000	88.539	143.3420
9880.000000	88.430	147.1062
10000.000000	88.417	150.5173
10150.000000	88.525	154.5461
10300.000000	88.763	158.0468
10440.000000	89.070	160.6354
10600.000000	89.480	162.6401
10750.000000	89.875	163.5058
10900.000000	90.228	163.3819
11060.000000	90.503	162.3044
11200.000000	90.617	160.8446
11380.000000	90.572	158.8339
11500.000000	90.437	157.7228
11720.000000	90.046	156.5999
11800.000000	89.880	156.4932
12060.000000	89.317	156.9481
12200.000000	89.002	157.5351
12410.000000	88.488	158.8036
12500.000000	88.246	159.5600
12650.000000	87.816	161.2420
12800.000000	87.375	163.5508
13150.000000	86.481	171.1855
13200.000000	86.378	172.4728
13400.000000	86.039	178.0065
13600.000000	85.839	-175.9753
13800.000000	85.796	-169.6911
14000.000000	85.923	-163.3760
14300.000000	86.445	-154.3932
14500.000000	87.018	-149.2288
14750.000000	87.950	-144.4743
15000.000000	89.001	-142.4611
15250.000000	89.948	-143.8046
15500.000000	90.536	-148.0866
15750.000000	90.632	-153.6911
16000.000000	90.288	-159.0959
16250.000000	89.574	-163.8121
16500.000000	88.450	-167.1929
16750.000000	86.925	-167.4957
17000.000000	85.236	-163.6319
17250.000000	83.717	-156.3808
17500.000000	82.552	-147.2430
17750.000000	81.752	-137.3743
18000.000000	81.265	-127.4532
18250.000000	81.032	-117.8348
18500.000000	81.009	-108.7168
18750.000000	81.177	-100.2855
19000.000000	81.527	-92.8202
19250.000000	82.045	-86.7692
19500.000000	82.665	-82.7455
19750.000000	83.235	-81.0954
