* Measurement data measured by REW V5.20.13
* Source: Primary Sound Capture Driver, no input selected, R, volume: no control
* Format: 256k Log Swept Sine, 1 sweep at 0.0 dBFS with no timing reference
* Dated: 09/11/2023 11:14:24 AM
* REW Settings:
*  C-weighting compensation: Off
*  Target level: 75.0 dB
* Note: ; 
* Measurement: Noble Katana L
* Smoothing: 1/24 octave
* Frequency Step: 1/48 octave
* Start Frequency: 20.000 Hz
*
* Freq(Hz)	SPL(dB)	Phase(degrees)
20.000000	99.852	-143.9556
20.299999	99.878	-144.6819
20.600000	99.902	-145.3781
20.900000	99.925	-146.0424
21.200001	99.946	-146.6725
21.400000	99.961	-147.0740
21.799999	99.992	-147.8434
22.000000	100.009	-148.2203
22.400000	100.047	-148.9827
22.700001	100.075	-149.5761
23.000000	100.099	-150.1888
23.299999	100.117	-150.8030
23.600000	100.129	-151.3977
24.000000	100.138	-152.1334
24.299999	100.145	-152.6387
24.700001	100.157	-153.2711
25.000000	100.169	-153.7353
25.400000	100.187	-154.3544
25.799999	100.205	-154.9641
26.200001	100.224	-155.5505
26.500000	100.243	-155.9835
26.900000	100.275	-156.5842
27.200001	100.300	-157.0769
27.600000	100.329	-157.7978
28.000000	100.346	-158.5533
28.500000	100.350	-159.4506
29.000000	100.345	-160.2401
29.500000	100.342	-160.9605
30.000000	100.334	-161.6459
30.400000	100.321	-162.1306
30.700001	100.310	-162.4262
31.100000	100.302	-162.7252
31.500000	100.312	-162.9678
32.000000	100.346	-163.3278
32.500000	100.386	-163.8447
33.000000	100.409	-164.4601
33.500000	100.412	-165.0435
34.000000	100.410	-165.5349
34.500000	100.412	-165.9868
35.000000	100.418	-166.4645
35.500000	100.417	-166.9679
36.000000	100.409	-167.4474
36.500000	100.400	-167.8766
37.000000	100.396	-168.2758
37.500000	100.399	-168.6813
38.200001	100.410	-169.2974
38.700001	100.418	-169.7809
39.500000	100.420	-170.6084
40.000000	100.409	-171.0951
40.599998	100.393	-171.5655
41.200001	100.388	-171.9224
41.799999	100.403	-172.2817
42.500000	100.425	-172.8145
43.099998	100.431	-173.3214
43.700001	100.426	-173.7825
44.400002	100.416	-174.2239
45.000000	100.415	-174.5544
45.500000	100.420	-174.8488
46.200001	100.427	-175.3469
46.799999	100.419	-175.8177
47.500000	100.397	-176.2830
48.200001	100.384	-176.6470
48.700001	100.384	-176.9238
49.400002	100.385	-177.3889
50.000000	100.377	-177.8002
50.799999	100.362	-178.2891
51.500000	100.353	-178.6882
52.200001	100.345	-179.0833
53.000000	100.336	-179.5298
53.799999	100.325	-179.9735
54.500000	100.313	179.6624
55.200001	100.304	179.3259
56.000000	100.300	178.9330
57.000000	100.296	178.3910
58.000000	100.284	177.8469
59.000000	100.273	177.3628
60.000000	100.269	176.8743
60.799999	100.260	176.4651
61.500000	100.249	176.1347
62.200001	100.237	175.8335
63.000000	100.226	175.4980
64.000000	100.212	175.0759
65.000000	100.196	174.6465
66.000000	100.178	174.2194
67.000000	100.160	173.8068
68.000000	100.144	173.4010
69.000000	100.130	172.9974
70.000000	100.116	172.5958
71.000000	100.104	172.2032
72.000000	100.091	171.8110
73.000000	100.076	171.4175
74.000000	100.057	171.0479
75.000000	100.039	170.7018
76.199997	100.017	170.2957
77.500000	99.995	169.8642
78.800003	99.975	169.4164
80.000000	99.957	168.9996
81.199997	99.939	168.5731
82.500000	99.915	168.1299
83.800003	99.892	167.7256
85.000000	99.872	167.3647
86.199997	99.851	167.0067
87.500000	99.828	166.6260
88.500000	99.811	166.3397
90.000000	99.787	165.9133
91.199997	99.770	165.5700
92.500000	99.753	165.1971
93.800003	99.734	164.8279
95.000000	99.717	164.4852
96.199997	99.699	164.1306
97.500000	99.677	163.7380
98.800003	99.652	163.3517
100.000000	99.630	163.0089
101.500000	99.603	162.5894
103.000000	99.577	162.1626
104.400002	99.546	161.7678
106.000000	99.507	161.3583
107.500000	99.472	160.9982
109.000000	99.439	160.6404
110.599998	99.403	160.2615
112.000000	99.369	159.9471
113.800003	99.326	159.5608
115.000000	99.296	159.3077
117.199997	99.237	158.8640
118.000000	99.215	158.7156
120.599998	99.141	158.2993
122.000000	99.100	158.1111
124.099998	99.038	157.8850
125.000000	99.011	157.8188
126.500000	98.969	157.7584
128.000000	98.935	157.7622
131.500000	98.907	157.9272
132.000000	98.910	157.9525
134.000000	98.943	157.9995
136.000000	99.000	157.8379
138.000000	99.053	157.4089
140.000000	99.080	156.8009
143.000000	99.053	155.9213
145.000000	99.021	155.5822
147.500000	99.009	155.3956
150.000000	99.050	155.2659
152.500000	99.135	154.8129
155.000000	99.207	153.9021
157.500000	99.231	152.7794
160.000000	99.212	151.6584
162.500000	99.162	150.6402
165.000000	99.095	149.7511
167.500000	99.020	149.0085
170.000000	98.948	148.3685
172.500000	98.880	147.7874
175.000000	98.814	147.2695
177.500000	98.753	146.8004
180.000000	98.696	146.3416
182.500000	98.645	145.8788
185.000000	98.597	145.4224
187.500000	98.549	144.9902
190.000000	98.499	144.5663
192.500000	98.448	144.1296
195.000000	98.394	143.6847
197.500000	98.340	143.2471
200.000000	98.285	142.8312
203.000000	98.222	142.3722
206.000000	98.162	141.9414
209.000000	98.103	141.5146
212.000000	98.044	141.0955
214.000000	98.006	140.8269
218.000000	97.929	140.3040
220.000000	97.891	140.0407
224.000000	97.814	139.5055
227.000000	97.757	139.1066
230.000000	97.701	138.7138
233.000000	97.646	138.3400
236.000000	97.593	137.9939
240.000000	97.524	137.5674
243.000000	97.470	137.2478
247.000000	97.396	136.8069
250.000000	97.341	136.4791
254.000000	97.270	136.0573
258.000000	97.202	135.6489
262.000000	97.134	135.2543
265.000000	97.083	134.9661
269.000000	97.017	134.6053
272.000000	96.969	134.3564
276.000000	96.902	134.0346
280.000000	96.836	133.7026
285.000000	96.756	133.2884
290.000000	96.680	132.8947
295.000000	96.602	132.5140
300.000000	96.523	132.1348
304.000000	96.462	131.8481
307.000000	96.417	131.6539
311.000000	96.360	131.4186
315.000000	96.304	131.1956
320.000000	96.235	130.9139
325.000000	96.168	130.6260
330.000000	96.103	130.3313
335.000000	96.041	130.0190
340.000000	95.981	129.6971
345.000000	95.917	129.3803
350.000000	95.850	129.0858
355.000000	95.781	128.8165
360.000000	95.711	128.5653
365.000000	95.642	128.3309
370.000000	95.575	128.1141
375.000000	95.510	127.9097
382.000000	95.420	127.6287
387.000000	95.357	127.4370
395.000000	95.257	127.1749
400.000000	95.195	127.0432
406.000000	95.121	126.9137
412.000000	95.047	126.8040
418.000000	94.976	126.7003
425.000000	94.897	126.5807
431.000000	94.832	126.4838
437.000000	94.769	126.3988
444.000000	94.697	126.3121
450.000000	94.637	126.2574
455.000000	94.586	126.2303
462.000000	94.517	126.2206
468.000000	94.458	126.2261
475.000000	94.391	126.2398
482.000000	94.327	126.2628
487.000000	94.282	126.2855
494.000000	94.222	126.3313
500.000000	94.172	126.3830
508.000000	94.110	126.4691
515.000000	94.055	126.5569
522.000000	94.001	126.6561
530.000000	93.940	126.7933
538.000000	93.880	126.9602
545.000000	93.831	127.1213
552.000000	93.784	127.2862
560.000000	93.731	127.4835
570.000000	93.669	127.7491
580.000000	93.611	128.0422
590.000000	93.555	128.3631
600.000000	93.500	128.7079
608.000000	93.458	129.0061
615.000000	93.423	129.2844
622.000000	93.390	129.5715
630.000000	93.354	129.9033
640.000000	93.311	130.3262
650.000000	93.274	130.7692
660.000000	93.241	131.2387
670.000000	93.209	131.7379
680.000000	93.179	132.2471
690.000000	93.152	132.7681
700.000000	93.128	133.3152
710.000000	93.106	133.8885
720.000000	93.087	134.4758
730.000000	93.071	135.0696
740.000000	93.060	135.6736
750.000000	93.053	136.2937
762.000000	93.050	137.0562
775.000000	93.052	137.9012
788.000000	93.058	138.7643
800.000000	93.068	139.5767
812.000000	93.081	140.4066
825.000000	93.101	141.3212
838.000000	93.126	142.2438
850.000000	93.156	143.0966
862.000000	93.193	143.9473
875.000000	93.240	144.8675
885.000000	93.282	145.5736
900.000000	93.350	146.6246
912.000000	93.410	147.4523
925.000000	93.479	148.3434
938.000000	93.551	149.2290
950.000000	93.622	150.0300
962.000000	93.697	150.8088
975.000000	93.782	151.6226
988.000000	93.872	152.4036
1000.000000	93.958	153.1026
1015.000000	94.069	153.9493
1030.000000	94.182	154.7530
1044.000000	94.291	155.4556
1060.000000	94.416	156.2090
1075.000000	94.533	156.8752
1090.000000	94.646	157.5056
1106.000000	94.764	158.1389
1120.000000	94.865	158.6628
1138.000000	94.991	159.2953
1150.000000	95.074	159.6881
1172.000000	95.220	160.3581
1180.000000	95.271	160.5926
1206.000000	95.428	161.3353
1220.000000	95.507	161.7198
1241.000000	95.618	162.2778
1250.000000	95.663	162.5144
1265.000000	95.733	162.9145
1280.000000	95.799	163.3286
1315.000000	95.938	164.3329
1320.000000	95.958	164.4786
1340.000000	96.035	165.0690
1360.000000	96.111	165.6780
1380.000000	96.185	166.2983
1400.000000	96.255	166.9080
1430.000000	96.350	167.8071
1450.000000	96.405	168.4236
1475.000000	96.466	169.2349
1500.000000	96.521	170.0850
1525.000000	96.573	170.9742
1550.000000	96.624	171.9141
1575.000000	96.673	172.9126
1600.000000	96.722	173.9787
1625.000000	96.775	175.1111
1650.000000	96.837	176.2906
1675.000000	96.912	177.4789
1700.000000	96.997	178.6327
1725.000000	97.084	179.7411
1750.000000	97.171	-179.1871
1775.000000	97.256	-178.1507
1800.000000	97.341	-177.1432
1825.000000	97.425	-176.1484
1850.000000	97.509	-175.1565
1875.000000	97.592	-174.1633
1900.000000	97.677	-173.1757
1925.000000	97.762	-172.2048
1950.000000	97.847	-171.2457
1975.000000	97.931	-170.2924
2000.000000	98.014	-169.3536
2030.000000	98.115	-168.2586
2060.000000	98.218	-167.2031
2090.000000	98.323	-166.1916
2120.000000	98.427	-165.2191
2140.000000	98.496	-164.5912
2180.000000	98.632	-163.4095
2200.000000	98.699	-162.8599
2240.000000	98.826	-161.8262
2270.000000	98.913	-161.1022
2300.000000	98.989	-160.4264
2330.000000	99.058	-159.7979
2360.000000	99.117	-159.2139
2400.000000	99.180	-158.4940
2430.000000	99.214	-157.9780
2470.000000	99.237	-157.2950
2500.000000	99.238	-156.7607
2540.000000	99.219	-155.9730
2580.000000	99.185	-155.0547
2620.000000	99.146	-153.9698
2650.000000	99.122	-153.0550
2690.000000	99.106	-151.7738
2720.000000	99.110	-150.8364
2760.000000	99.130	-149.7030
2800.000000	99.152	-148.7314
2850.000000	99.156	-147.6578
2900.000000	99.133	-146.5543
2950.000000	99.108	-145.3105
3000.000000	99.111	-143.9906
3040.000000	99.143	-142.9862
3070.000000	99.186	-142.3374
3110.000000	99.265	-141.7169
3150.000000	99.354	-141.4813
3200.000000	99.441	-141.8083
3250.000000	99.454	-142.7229
3300.000000	99.364	-143.9323
3350.000000	99.174	-145.1246
3400.000000	98.913	-146.1137
3450.000000	98.611	-146.8610
3500.000000	98.294	-147.4394
3550.000000	97.976	-147.9784
3600.000000	97.659	-148.6055
3650.000000	97.340	-149.4198
3700.000000	97.012	-150.4883
3750.000000	96.669	-151.8464
3820.000000	96.157	-154.2817
3870.000000	95.769	-156.4563
3950.000000	95.111	-160.9059
4000.000000	94.672	-164.4341
4060.000000	94.109	-169.5159
4120.000000	93.507	-175.5388
4180.000000	92.881	177.5442
4250.000000	92.163	168.5176
4310.000000	91.605	160.2156
4370.000000	91.150	151.7084
4440.000000	90.807	142.0031
4500.000000	90.697	134.2870
4550.000000	90.732	128.5089
4620.000000	90.945	121.6360
4680.000000	91.243	116.9589
4750.000000	91.686	112.8849
4820.000000	92.202	110.1415
4870.000000	92.605	108.8704
4940.000000	93.205	107.8571
5000.000000	93.750	107.5226
5080.000000	94.510	107.5677
5150.000000	95.198	107.8266
5220.000000	95.899	108.0756
5300.000000	96.697	108.1074
5380.000000	97.462	107.6370
5450.000000	98.065	106.6857
5520.000000	98.569	105.1999
5600.000000	98.975	102.9752
5700.000000	99.164	100.0040
5800.000000	98.992	97.9515
5900.000000	98.558	97.9393
6000.000000	98.045	100.3448
6080.000000	97.695	103.6837
6150.000000	97.476	107.2385
6220.000000	97.340	111.0795
6300.000000	97.266	115.5754
6400.000000	97.254	121.1689
6500.000000	97.296	126.7013
6600.000000	97.375	132.2213
6700.000000	97.487	137.7639
6800.000000	97.632	143.3312
6900.000000	97.815	148.8882
7000.000000	98.039	154.4048
7100.000000	98.317	159.8824
7200.000000	98.677	165.1771
7300.000000	99.112	169.9799
7400.000000	99.593	174.1424
7500.000000	100.105	177.5774
7620.000000	100.731	-179.4769
7750.000000	101.358	-178.0300
7880.000000	101.813	-178.5691
8000.000000	101.952	179.4790
8120.000000	101.736	177.0444
8250.000000	101.105	175.1620
8380.000000	100.160	175.0733
8500.000000	99.132	176.8882
8620.000000	98.060	-179.6183
8750.000000	96.930	-174.3065
8850.000000	96.110	-169.3800
9000.000000	94.986	-160.9724
9120.000000	94.187	-153.6240
9250.000000	93.420	-145.2744
9380.000000	92.752	-136.7116
9500.000000	92.218	-128.7797
9620.000000	91.751	-120.9993
9750.000000	91.281	-112.8837
9880.000000	90.787	-104.9973
10000.000000	90.272	-97.4701
10150.000000	89.618	-87.0117
10300.000000	89.140	-75.7601
10440.000000	88.887	-65.6204
10600.000000	88.699	-55.0370
10750.000000	88.522	-45.9623
10900.000000	88.299	-37.4528
11060.000000	87.989	-28.7365
11200.000000	87.649	-21.2235
11380.000000	87.110	-11.4874
11500.000000	86.679	-4.8024
11720.000000	85.724	8.5167
11800.000000	85.332	13.9414
12060.000000	84.055	34.8876
12200.000000	83.560	48.5381
12410.000000	83.541	70.6437
12500.000000	83.845	79.7450
12650.000000	84.635	93.1808
12800.000000	85.555	103.9333
13150.000000	87.301	120.6769
13200.000000	87.473	122.5181
13400.000000	87.986	129.5081
13600.000000	88.302	136.5794
13800.000000	88.546	144.0408
14000.000000	88.818	151.6771
14300.000000	89.391	162.2541
14500.000000	89.850	167.6919
14750.000000	90.322	171.7860
15000.000000	90.417	173.2145
15250.000000	89.966	173.8678
15500.000000	89.019	176.0603
15750.000000	87.808	-179.0588
16000.000000	86.593	-171.8016
16250.000000	85.539	-163.1743
16500.000000	84.695	-154.2081
16750.000000	84.033	-145.7261
17000.000000	83.475	-138.2500
17250.000000	82.921	-131.9312
17500.000000	82.284	-126.5271
17750.000000	81.524	-121.5601
18000.000000	80.650	-116.6648
18250.000000	79.675	-111.6113
18500.000000	78.621	-105.8959
18750.000000	77.613	-99.4286
19000.000000	76.753	-93.0802
19250.000000	75.993	-87.4410
19500.000000	75.279	-82.6050
19750.000000	74.617	-78.7508
