* Measurement data measured by REW V5.20.9
* Source: Input device not selected, no input selected, R, volume: no control
* Format: 256k Log Swept Sine, 1 sweep at 0.0 dBFS with no timing reference
* Dated: 24/03/2023 3:51:21 PM
* REW Settings:
*  C-weighting compensation: Off
*  Target level: 75.0 dB
* Note: ; 
* Measurement: Ronin L
* Smoothing: 1/24 octave
* Frequency Step: 1/48 octave
* Start Frequency: 20.000 Hz
*
* Freq(Hz)	SPL(dB)	Phase(degrees)
20.000000	100.184	16.6476
20.299999	100.229	16.3235
20.600000	100.263	15.8939
20.900000	100.280	15.4319
21.200001	100.283	15.0256
21.400000	100.284	14.8091
21.799999	100.295	14.4681
22.000000	100.308	14.3082
22.400000	100.349	13.9113
22.700001	100.379	13.5062
23.000000	100.397	13.0326
23.299999	100.397	12.5671
23.600000	100.386	12.1727
24.000000	100.367	11.8033
24.299999	100.362	11.6079
24.700001	100.374	11.3469
25.000000	100.388	11.0856
25.400000	100.399	10.6424
25.799999	100.389	10.1851
26.200001	100.366	9.8263
26.500000	100.349	9.6403
26.900000	100.339	9.4560
27.200001	100.341	9.3099
27.600000	100.350	9.0546
28.000000	100.356	8.7368
28.500000	100.354	8.3300
29.000000	100.350	7.9706
29.500000	100.354	7.6293
30.000000	100.363	7.2556
30.400000	100.368	6.9312
30.700001	100.371	6.6833
31.100000	100.371	6.3599
31.500000	100.369	6.0547
32.000000	100.364	5.7139
32.500000	100.359	5.4294
33.000000	100.361	5.1812
33.500000	100.369	4.9201
34.000000	100.377	4.6147
34.500000	100.375	4.2925
35.000000	100.365	4.0074
35.500000	100.354	3.7812
36.000000	100.349	3.5798
36.500000	100.350	3.3520
37.000000	100.349	3.0768
37.500000	100.343	2.7779
38.200001	100.326	2.3901
38.700001	100.315	2.1455
39.500000	100.303	1.7552
40.000000	100.295	1.5221
40.599998	100.288	1.2898
41.200001	100.293	1.0627
41.799999	100.298	0.7743
42.500000	100.284	0.4943
43.099998	100.281	0.4747
43.700001	100.325	0.4573
44.400002	100.400	-0.0414
45.000000	100.404	-0.8322
45.500000	100.348	-1.3568
46.200001	100.248	-1.5409
46.799999	100.209	-1.4164
47.500000	100.207	-1.4339
48.200001	100.200	-1.6475
48.700001	100.188	-1.8048
49.400002	100.172	-2.0032
50.000000	100.162	-2.1872
50.799999	100.149	-2.4326
51.500000	100.143	-2.6550
52.200001	100.137	-2.9212
53.000000	100.119	-3.2140
53.799999	100.100	-3.4142
54.500000	100.093	-3.5602
55.200001	100.088	-3.7401
56.000000	100.078	-3.9822
57.000000	100.054	-4.2646
58.000000	100.027	-4.4925
59.000000	100.005	-4.6971
60.000000	99.992	-4.9164
60.799999	99.986	-5.1406
61.500000	99.977	-5.3732
62.200001	99.964	-5.6020
63.000000	99.946	-5.8254
64.000000	99.927	-6.0713
65.000000	99.909	-6.2913
66.000000	99.894	-6.4861
67.000000	99.880	-6.7081
68.000000	99.861	-6.9188
69.000000	99.845	-7.1077
70.000000	99.832	-7.3451
71.000000	99.812	-7.5994
72.000000	99.791	-7.8330
73.000000	99.769	-8.0638
74.000000	99.747	-8.2753
75.000000	99.726	-8.4631
76.199997	99.705	-8.6998
77.500000	99.679	-8.9640
78.800003	99.649	-9.2087
80.000000	99.621	-9.4165
81.199997	99.593	-9.6078
82.500000	99.568	-9.8188
83.800003	99.541	-10.0479
85.000000	99.514	-10.2321
86.199997	99.487	-10.3853
87.500000	99.461	-10.5248
88.500000	99.443	-10.6462
90.000000	99.408	-10.8613
91.199997	99.378	-10.9996
92.500000	99.350	-11.1586
93.800003	99.323	-11.3293
95.000000	99.299	-11.4792
96.199997	99.278	-11.6267
97.500000	99.254	-11.7919
98.800003	99.228	-11.9651
100.000000	99.201	-12.1262
101.500000	99.165	-12.3289
103.000000	99.127	-12.5216
104.400002	99.093	-12.6675
106.000000	99.059	-12.8065
107.500000	99.027	-12.9294
109.000000	98.993	-13.0455
110.599998	98.955	-13.1772
112.000000	98.920	-13.3043
113.800003	98.874	-13.4796
115.000000	98.844	-13.6023
117.199997	98.786	-13.7931
118.000000	98.767	-13.8487
120.599998	98.704	-14.0085
122.000000	98.670	-14.0873
124.099998	98.618	-14.1975
125.000000	98.595	-14.2415
126.500000	98.557	-14.3141
128.000000	98.519	-14.3815
131.500000	98.425	-14.4881
132.000000	98.411	-14.5007
134.000000	98.351	-14.5417
136.000000	98.290	-14.5469
138.000000	98.231	-14.5206
140.000000	98.173	-14.4538
143.000000	98.086	-14.2289
145.000000	98.029	-13.9740
147.500000	97.967	-13.5184
150.000000	97.935	-12.8892
152.500000	97.966	-12.2094
155.000000	98.061	-11.8024
157.500000	98.177	-11.9075
160.000000	98.258	-12.4676
162.500000	98.279	-13.2048
165.000000	98.253	-13.8748
167.500000	98.200	-14.4019
170.000000	98.137	-14.7842
172.500000	98.070	-15.0504
175.000000	98.005	-15.2366
177.500000	97.942	-15.3768
180.000000	97.882	-15.5016
182.500000	97.826	-15.5972
185.000000	97.773	-15.6505
187.500000	97.721	-15.6796
190.000000	97.669	-15.6979
192.500000	97.619	-15.7077
195.000000	97.572	-15.7121
197.500000	97.525	-15.7120
200.000000	97.478	-15.7075
203.000000	97.424	-15.6940
206.000000	97.372	-15.6726
209.000000	97.321	-15.6385
212.000000	97.273	-15.5939
214.000000	97.242	-15.5631
218.000000	97.180	-15.5034
220.000000	97.148	-15.4774
224.000000	97.084	-15.4158
227.000000	97.038	-15.3488
230.000000	96.993	-15.2754
233.000000	96.948	-15.2095
236.000000	96.904	-15.1489
240.000000	96.847	-15.0557
243.000000	96.805	-14.9763
247.000000	96.748	-14.8669
250.000000	96.706	-14.7776
254.000000	96.652	-14.6458
258.000000	96.601	-14.5104
262.000000	96.549	-14.3701
265.000000	96.510	-14.2571
269.000000	96.458	-14.0997
272.000000	96.420	-13.9801
276.000000	96.370	-13.8168
280.000000	96.320	-13.6410
285.000000	96.262	-13.3987
290.000000	96.207	-13.1443
295.000000	96.154	-12.8785
300.000000	96.107	-12.6241
304.000000	96.074	-12.4398
307.000000	96.050	-12.3135
311.000000	96.017	-12.1595
315.000000	95.981	-12.0114
320.000000	95.933	-11.8171
325.000000	95.883	-11.6117
330.000000	95.834	-11.3962
335.000000	95.786	-11.1691
340.000000	95.738	-10.9286
345.000000	95.690	-10.6752
350.000000	95.644	-10.4115
355.000000	95.599	-10.1423
360.000000	95.557	-9.8700
365.000000	95.517	-9.5933
370.000000	95.479	-9.3132
375.000000	95.442	-9.0353
382.000000	95.392	-8.6475
387.000000	95.356	-8.3705
395.000000	95.302	-7.9238
400.000000	95.271	-7.6454
406.000000	95.235	-7.3156
412.000000	95.200	-6.9935
418.000000	95.164	-6.6855
425.000000	95.123	-6.3379
431.000000	95.087	-6.0409
437.000000	95.050	-5.7382
444.000000	95.008	-5.3693
450.000000	94.971	-5.0419
455.000000	94.942	-4.7653
462.000000	94.900	-4.3792
468.000000	94.866	-4.0469
475.000000	94.826	-3.6519
482.000000	94.789	-3.2505
487.000000	94.763	-2.9611
494.000000	94.727	-2.5537
500.000000	94.697	-2.2046
508.000000	94.657	-1.7389
515.000000	94.623	-1.3261
522.000000	94.590	-0.9011
530.000000	94.554	-0.4088
538.000000	94.519	0.0791
545.000000	94.489	0.5038
552.000000	94.460	0.9315
560.000000	94.428	1.4217
570.000000	94.390	2.0436
580.000000	94.353	2.6837
590.000000	94.318	3.3265
600.000000	94.285	3.9694
608.000000	94.259	4.4901
615.000000	94.237	4.9454
622.000000	94.216	5.4009
630.000000	94.195	5.9301
640.000000	94.168	6.5995
650.000000	94.144	7.2716
660.000000	94.123	7.9497
670.000000	94.103	8.6309
680.000000	94.085	9.3149
690.000000	94.067	10.0118
700.000000	94.051	10.7156
710.000000	94.038	11.4253
720.000000	94.027	12.1388
730.000000	94.019	12.8544
740.000000	94.013	13.5751
750.000000	94.008	14.3007
762.000000	94.007	15.1855
775.000000	94.010	16.1475
788.000000	94.018	17.1091
800.000000	94.031	17.9930
812.000000	94.048	18.8817
825.000000	94.071	19.8511
838.000000	94.098	20.8143
850.000000	94.128	21.6958
862.000000	94.163	22.5695
875.000000	94.206	23.5018
885.000000	94.243	24.2105
900.000000	94.303	25.2638
912.000000	94.356	26.0953
925.000000	94.419	26.9755
938.000000	94.486	27.8228
950.000000	94.554	28.5809
962.000000	94.625	29.3165
975.000000	94.705	30.0823
988.000000	94.788	30.8156
1000.000000	94.869	31.4607
1015.000000	94.973	32.2214
1030.000000	95.080	32.9265
1044.000000	95.182	33.5376
1060.000000	95.299	34.1818
1075.000000	95.407	34.7305
1090.000000	95.514	35.2328
1106.000000	95.626	35.7214
1120.000000	95.723	36.1074
1138.000000	95.845	36.5450
1150.000000	95.924	36.8058
1172.000000	96.066	37.2293
1180.000000	96.114	37.3655
1206.000000	96.263	37.7667
1220.000000	96.338	37.9651
1241.000000	96.443	38.2288
1250.000000	96.486	38.3314
1265.000000	96.554	38.4980
1280.000000	96.618	38.6692
1315.000000	96.757	39.0390
1320.000000	96.776	39.0880
1340.000000	96.848	39.2919
1360.000000	96.916	39.5154
1380.000000	96.980	39.7403
1400.000000	97.040	39.9619
1430.000000	97.122	40.3354
1450.000000	97.174	40.6038
1475.000000	97.239	40.9363
1500.000000	97.305	41.2851
1525.000000	97.371	41.6585
1550.000000	97.438	42.0493
1575.000000	97.508	42.4323
1600.000000	97.576	42.8253
1625.000000	97.646	43.2454
1650.000000	97.717	43.6640
1675.000000	97.794	44.0558
1700.000000	97.877	44.4356
1725.000000	97.963	44.8026
1750.000000	98.051	45.1586
1775.000000	98.142	45.4941
1800.000000	98.238	45.7969
1825.000000	98.338	46.0653
1850.000000	98.441	46.2988
1875.000000	98.545	46.4948
1900.000000	98.652	46.6454
1925.000000	98.760	46.7466
1950.000000	98.872	46.7927
1975.000000	98.987	46.7678
2000.000000	99.099	46.6852
2030.000000	99.231	46.5258
2060.000000	99.358	46.2688
2090.000000	99.480	45.9118
2120.000000	99.597	45.4786
2140.000000	99.670	45.1357
2180.000000	99.804	44.3253
2200.000000	99.863	43.8736
2240.000000	99.963	42.8785
2270.000000	100.020	42.0510
2300.000000	100.061	41.1805
2330.000000	100.084	40.2859
2360.000000	100.090	39.3778
2400.000000	100.069	38.1898
2430.000000	100.033	37.3628
2470.000000	99.961	36.3886
2500.000000	99.898	35.7863
2540.000000	99.817	35.1724
2580.000000	99.758	34.7080
2620.000000	99.729	34.2500
2650.000000	99.722	33.8260
2690.000000	99.716	33.1445
2720.000000	99.708	32.5612
2760.000000	99.696	31.6963
2800.000000	99.686	30.7473
2850.000000	99.675	29.4103
2900.000000	99.659	27.8685
2950.000000	99.628	26.1104
3000.000000	99.572	24.1266
3040.000000	99.499	22.4744
3070.000000	99.429	21.2161
3110.000000	99.323	19.5258
3150.000000	99.213	17.8505
3200.000000	99.077	15.7480
3250.000000	98.952	13.5593
3300.000000	98.836	11.1765
3350.000000	98.722	8.5162
3400.000000	98.599	5.5291
3450.000000	98.453	2.2287
3500.000000	98.272	-1.3340
3550.000000	98.050	-5.1094
3600.000000	97.783	-9.0261
3650.000000	97.470	-13.0056
3700.000000	97.112	-16.9584
3750.000000	96.715	-20.7913
3820.000000	96.111	-25.8295
3870.000000	95.663	-29.1046
3950.000000	94.964	-33.7086
4000.000000	94.566	-36.2230
4060.000000	94.152	-38.9687
4120.000000	93.816	-41.5279
4180.000000	93.559	-43.9545
4250.000000	93.357	-46.6323
4310.000000	93.268	-48.8077
4370.000000	93.257	-50.8840
4440.000000	93.342	-53.2243
4500.000000	93.496	-55.2053
4550.000000	93.676	-56.8636
4620.000000	93.997	-59.2489
4680.000000	94.326	-61.4055
4750.000000	94.756	-64.1262
4820.000000	95.209	-67.1196
4870.000000	95.531	-69.4366
4940.000000	95.960	-72.9370
5000.000000	96.289	-76.1439
5080.000000	96.644	-80.6323
5150.000000	96.853	-84.6292
5220.000000	96.959	-88.5030
5300.000000	96.956	-92.5532
5380.000000	96.838	-96.0232
5450.000000	96.661	-98.5000
5520.000000	96.431	-100.4246
5600.000000	96.122	-101.8954
5700.000000	95.726	-102.6989
5800.000000	95.356	-102.7305
5900.000000	95.014	-102.1708
6000.000000	94.707	-101.1473
6080.000000	94.494	-100.1409
6150.000000	94.336	-99.3837
6220.000000	94.178	-99.0842
6300.000000	93.915	-99.6979
6400.000000	93.180	-101.8751
6500.000000	91.460	-100.3124
6600.000000	89.177	-82.6179
6700.000000	89.522	-57.8466
6800.000000	91.445	-44.5097
6900.000000	93.076	-39.5272
7000.000000	94.239	-37.8287
7100.000000	95.106	-36.6988
7200.000000	95.856	-35.5101
7300.000000	96.569	-34.4932
7400.000000	97.264	-33.9692
7500.000000	97.925	-34.2274
7620.000000	98.612	-35.8436
7750.000000	99.109	-39.2024
7880.000000	99.229	-43.5432
8000.000000	98.960	-47.2937
8120.000000	98.374	-49.7311
8250.000000	97.513	-50.2148
8380.000000	96.567	-48.3982
8500.000000	95.723	-44.9920
8620.000000	94.966	-40.3163
8750.000000	94.273	-34.2293
8850.000000	93.839	-29.0670
9000.000000	93.334	-20.9402
9120.000000	92.995	-14.0557
9250.000000	92.752	-5.4127
9380.000000	92.904	3.5933
9500.000000	93.284	10.2606
9620.000000	93.658	15.4492
9750.000000	94.016	20.2338
9880.000000	94.352	24.3458
10000.000000	94.612	27.4971
10150.000000	94.831	30.9859
10300.000000	94.973	34.4374
10440.000000	95.086	37.6484
10600.000000	95.218	41.0881
10750.000000	95.336	43.8350
10900.000000	95.418	45.9349
11060.000000	95.418	47.4160
11200.000000	95.299	48.1932
11380.000000	94.933	48.9372
11500.000000	94.547	49.6702
11720.000000	93.628	52.3748
11800.000000	93.270	53.8006
12060.000000	92.127	59.1697
12200.000000	91.495	62.2007
12410.000000	90.478	66.8135
12500.000000	90.004	68.8832
12650.000000	89.155	72.5877
12800.000000	88.233	76.7384
13150.000000	85.860	88.7064
13200.000000	85.502	90.7105
13400.000000	84.043	99.5427
13600.000000	82.567	109.7638
13800.000000	81.121	121.4076
14000.000000	79.755	134.3575
14300.000000	77.952	155.7989
14500.000000	76.955	171.1221
14750.000000	75.979	-168.9408
15000.000000	75.340	-148.5814
15250.000000	75.067	-128.3756
15500.000000	75.169	-109.2227
15750.000000	75.500	-92.3796
16000.000000	75.788	-77.4359
16250.000000	76.043	-63.1662
16500.000000	76.342	-49.5808
16750.000000	76.686	-36.7514
17000.000000	77.093	-24.6605
17250.000000	77.603	-13.4847
17500.000000	78.272	-3.7223
17750.000000	79.131	3.6350
18000.000000	80.091	6.7733
18250.000000	80.794	3.3648
18500.000000	80.625	-6.6943
18750.000000	79.097	-17.6375
19000.000000	76.244	-21.8616
19250.000000	72.556	-17.2507
19500.000000	68.610	-6.1973
19750.000000	64.870	7.2722
