* Measurement data measured by REW V5.20.13
* Source: Primary Sound Capture Driver, no input selected, R, volume: no control
* Format: 256k Log Swept Sine, 1 sweep at 0.0 dBFS with no timing reference
* Dated: 09/11/2023 11:00:30 AM
* REW Settings:
*  C-weighting compensation: Off
*  Target level: 75.0 dB
* Note: ; 
* Measurement: Noble Stage 3 L
* Smoothing: 1/24 octave
* Frequency Step: 1/48 octave
* Start Frequency: 20.000 Hz
*
* Freq(Hz)	SPL(dB)	Phase(degrees)
20.000000	102.165	-172.9048
20.299999	102.168	-173.2364
20.600000	102.166	-173.5699
20.900000	102.158	-173.8815
21.200001	102.147	-174.1500
21.400000	102.140	-174.3011
21.799999	102.132	-174.5487
22.000000	102.131	-174.6569
22.400000	102.138	-174.8757
22.700001	102.148	-175.0662
23.000000	102.157	-175.2897
23.299999	102.163	-175.5347
23.600000	102.162	-175.7805
24.000000	102.154	-176.0734
24.299999	102.146	-176.2495
24.700001	102.139	-176.4339
25.000000	102.139	-176.5604
25.400000	102.145	-176.7551
25.799999	102.151	-177.0071
26.200001	102.150	-177.3046
26.500000	102.143	-177.5318
26.900000	102.127	-177.8076
27.200001	102.113	-177.9816
27.600000	102.096	-178.1731
28.000000	102.084	-178.3402
28.500000	102.076	-178.5524
29.000000	102.074	-178.7944
29.500000	102.073	-179.0742
30.000000	102.070	-179.3850
30.400000	102.063	-179.6405
30.700001	102.056	-179.8245
31.100000	102.045	179.9532
31.500000	102.034	179.7601
32.000000	102.024	179.5442
32.500000	102.019	179.3275
33.000000	102.013	179.0982
33.500000	102.004	178.8723
34.000000	101.993	178.6696
34.500000	101.984	178.4897
35.000000	101.977	178.3159
35.500000	101.972	178.1327
36.000000	101.966	177.9370
36.500000	101.958	177.7332
37.000000	101.949	177.5284
37.500000	101.937	177.3303
38.200001	101.919	177.0714
38.700001	101.908	176.8927
39.500000	101.889	176.5991
40.000000	101.875	176.4170
40.599998	101.858	176.2111
41.200001	101.842	176.0141
41.799999	101.827	175.8194
42.500000	101.811	175.5997
43.099998	101.800	175.4114
43.700001	101.790	175.2068
44.400002	101.777	174.9622
45.000000	101.767	174.7701
45.500000	101.760	174.6156
46.200001	101.751	174.4019
46.799999	101.744	174.2557
47.500000	101.750	174.1109
48.200001	101.767	173.8333
48.700001	101.766	173.5239
49.400002	101.729	173.1230
50.000000	101.680	172.9838
50.799999	101.639	173.0056
51.500000	101.625	172.9833
52.200001	101.611	172.8853
53.000000	101.591	172.7595
53.799999	101.573	172.6141
54.500000	101.556	172.4688
55.200001	101.541	172.3187
56.000000	101.525	172.1346
57.000000	101.507	171.9095
58.000000	101.495	171.6763
59.000000	101.480	171.3991
60.000000	101.458	171.1566
60.799999	101.443	170.9814
61.500000	101.429	170.8108
62.200001	101.413	170.6347
63.000000	101.391	170.4551
64.000000	101.368	170.2531
65.000000	101.349	170.0358
66.000000	101.328	169.8068
67.000000	101.307	169.5903
68.000000	101.285	169.3862
69.000000	101.261	169.1883
70.000000	101.236	169.0020
71.000000	101.209	168.8293
72.000000	101.182	168.6763
73.000000	101.161	168.5146
74.000000	101.140	168.3143
75.000000	101.115	168.1097
76.199997	101.084	167.8926
77.500000	101.053	167.6799
78.800003	101.026	167.4669
80.000000	100.998	167.2590
81.199997	100.968	167.0639
82.500000	100.935	166.8674
83.800003	100.903	166.6660
85.000000	100.872	166.4821
86.199997	100.842	166.3049
87.500000	100.810	166.1243
88.500000	100.786	165.9950
90.000000	100.753	165.8058
91.199997	100.726	165.6438
92.500000	100.695	165.4667
93.800003	100.665	165.2887
95.000000	100.637	165.1128
96.199997	100.610	164.9314
97.500000	100.579	164.7292
98.800003	100.545	164.5322
100.000000	100.512	164.3837
101.500000	100.474	164.2164
103.000000	100.434	164.0590
104.400002	100.399	163.9185
106.000000	100.359	163.7375
107.500000	100.319	163.5664
109.000000	100.275	163.4164
110.599998	100.230	163.2876
112.000000	100.193	163.1809
113.800003	100.149	163.0488
115.000000	100.123	162.9553
117.199997	100.076	162.7522
118.000000	100.058	162.6763
120.599998	99.991	162.4485
122.000000	99.954	162.3277
124.099998	99.896	162.1417
125.000000	99.870	162.0612
126.500000	99.826	161.9302
128.000000	99.780	161.8157
131.500000	99.667	161.6625
132.000000	99.651	161.6550
134.000000	99.587	161.6470
136.000000	99.523	161.6840
138.000000	99.460	161.7852
140.000000	99.403	161.9492
143.000000	99.343	162.2734
145.000000	99.323	162.5157
147.500000	99.325	162.7865
150.000000	99.346	162.9438
152.500000	99.378	162.9097
155.000000	99.408	162.6830
157.500000	99.425	162.3126
160.000000	99.419	161.9016
162.500000	99.398	161.4761
165.000000	99.367	161.0410
167.500000	99.329	160.6499
170.000000	99.285	160.2918
172.500000	99.231	159.9493
175.000000	99.174	159.6315
177.500000	99.116	159.3525
180.000000	99.056	159.1124
182.500000	98.994	158.8880
185.000000	98.932	158.6659
187.500000	98.872	158.4597
190.000000	98.813	158.2799
192.500000	98.755	158.1143
195.000000	98.698	157.9526
197.500000	98.640	157.8023
200.000000	98.580	157.6713
203.000000	98.507	157.5248
206.000000	98.434	157.3827
209.000000	98.362	157.2589
212.000000	98.290	157.1460
214.000000	98.243	157.0739
218.000000	98.149	156.9419
220.000000	98.102	156.8826
224.000000	98.009	156.7779
227.000000	97.938	156.7094
230.000000	97.865	156.6546
233.000000	97.790	156.6161
236.000000	97.715	156.5951
240.000000	97.616	156.6086
243.000000	97.542	156.6600
247.000000	97.447	156.7791
250.000000	97.381	156.9047
254.000000	97.307	157.1101
258.000000	97.251	157.2971
262.000000	97.208	157.3901
265.000000	97.177	157.3813
269.000000	97.127	157.2929
272.000000	97.083	157.2018
276.000000	97.014	157.0810
280.000000	96.938	156.9829
285.000000	96.838	156.9088
290.000000	96.737	156.8782
295.000000	96.635	156.8823
300.000000	96.534	156.9180
304.000000	96.454	156.9656
307.000000	96.395	157.0087
311.000000	96.316	157.0753
315.000000	96.238	157.1520
320.000000	96.142	157.2592
325.000000	96.046	157.3758
330.000000	95.952	157.5032
335.000000	95.859	157.6431
340.000000	95.768	157.7982
345.000000	95.677	157.9628
350.000000	95.586	158.1345
355.000000	95.497	158.3192
360.000000	95.408	158.5130
365.000000	95.321	158.7136
370.000000	95.235	158.9234
375.000000	95.150	159.1387
382.000000	95.033	159.4506
387.000000	94.951	159.6816
395.000000	94.821	160.0625
400.000000	94.741	160.3106
406.000000	94.646	160.6184
412.000000	94.552	160.9344
418.000000	94.459	161.2619
425.000000	94.352	161.6519
431.000000	94.261	161.9911
437.000000	94.172	162.3383
444.000000	94.070	162.7554
450.000000	93.983	163.1192
455.000000	93.912	163.4276
462.000000	93.814	163.8701
468.000000	93.730	164.2535
475.000000	93.633	164.7114
482.000000	93.537	165.1855
487.000000	93.469	165.5294
494.000000	93.375	166.0184
500.000000	93.296	166.4460
508.000000	93.191	167.0239
515.000000	93.103	167.5354
522.000000	93.015	168.0554
530.000000	92.917	168.6605
538.000000	92.821	169.2774
545.000000	92.738	169.8288
552.000000	92.657	170.3904
560.000000	92.564	171.0432
570.000000	92.450	171.8773
580.000000	92.339	172.7324
590.000000	92.231	173.6071
600.000000	92.126	174.4952
608.000000	92.044	175.2181
615.000000	91.973	175.8633
622.000000	91.903	176.5210
630.000000	91.825	177.2879
640.000000	91.730	178.2688
650.000000	91.637	179.2699
660.000000	91.547	-179.7071
670.000000	91.460	-178.6542
680.000000	91.378	-177.5746
690.000000	91.299	-176.4729
700.000000	91.226	-175.3452
710.000000	91.156	-174.1886
720.000000	91.092	-173.0037
730.000000	91.033	-171.7883
740.000000	90.980	-170.5417
750.000000	90.934	-169.2677
762.000000	90.888	-167.7062
775.000000	90.852	-165.9832
788.000000	90.832	-164.2402
800.000000	90.828	-162.6222
812.000000	90.838	-161.0033
825.000000	90.863	-159.2464
838.000000	90.903	-157.4906
850.000000	90.956	-155.8785
862.000000	91.025	-154.2883
875.000000	91.119	-152.6199
885.000000	91.205	-151.3932
900.000000	91.353	-149.6640
912.000000	91.485	-148.3960
925.000000	91.638	-147.1570
938.000000	91.796	-146.0549
950.000000	91.942	-145.1501
962.000000	92.086	-144.3473
975.000000	92.236	-143.5766
988.000000	92.380	-142.8930
1000.000000	92.508	-142.3280
1015.000000	92.661	-141.6931
1030.000000	92.804	-141.1187
1044.000000	92.931	-140.6257
1060.000000	93.069	-140.1042
1075.000000	93.193	-139.6487
1090.000000	93.311	-139.2166
1106.000000	93.430	-138.7777
1120.000000	93.531	-138.4168
1138.000000	93.654	-137.9790
1150.000000	93.732	-137.6973
1172.000000	93.869	-137.1993
1180.000000	93.917	-137.0260
1206.000000	94.068	-136.4877
1220.000000	94.146	-136.2071
1241.000000	94.259	-135.7974
1250.000000	94.305	-135.6247
1265.000000	94.380	-135.3361
1280.000000	94.452	-135.0441
1315.000000	94.610	-134.3557
1320.000000	94.632	-134.2561
1340.000000	94.719	-133.8522
1360.000000	94.803	-133.4432
1380.000000	94.887	-133.0242
1400.000000	94.970	-132.5913
1430.000000	95.095	-131.9211
1450.000000	95.180	-131.4662
1475.000000	95.288	-130.8935
1500.000000	95.398	-130.3092
1525.000000	95.511	-129.7214
1550.000000	95.627	-129.1377
1575.000000	95.748	-128.5587
1600.000000	95.873	-127.9901
1625.000000	96.004	-127.4328
1650.000000	96.140	-126.8913
1675.000000	96.280	-126.3691
1700.000000	96.425	-125.8675
1725.000000	96.575	-125.3954
1750.000000	96.729	-124.9547
1775.000000	96.888	-124.5490
1800.000000	97.051	-124.1865
1825.000000	97.218	-123.8712
1850.000000	97.390	-123.6051
1875.000000	97.564	-123.3931
1900.000000	97.741	-123.2351
1925.000000	97.918	-123.1307
1950.000000	98.093	-123.0794
1975.000000	98.267	-123.0723
2000.000000	98.439	-123.0967
2030.000000	98.643	-123.1504
2060.000000	98.848	-123.1977
2090.000000	99.063	-123.2130
2120.000000	99.304	-123.2337
2140.000000	99.484	-123.3049
2180.000000	99.886	-123.8090
2200.000000	100.094	-124.3214
2240.000000	100.482	-125.8686
2270.000000	100.728	-127.3615
2300.000000	100.931	-129.0103
2330.000000	101.097	-130.7309
2360.000000	101.230	-132.4816
2400.000000	101.362	-134.8307
2430.000000	101.431	-136.5829
2470.000000	101.485	-138.8844
2500.000000	101.499	-140.5697
2540.000000	101.487	-142.7337
2580.000000	101.442	-144.7847
2620.000000	101.368	-146.7040
2650.000000	101.297	-148.0463
2690.000000	101.185	-149.7026
2720.000000	101.089	-150.8408
2760.000000	100.950	-152.2142
2800.000000	100.799	-153.4257
2850.000000	100.601	-154.7144
2900.000000	100.396	-155.7549
2950.000000	100.192	-156.5567
3000.000000	99.993	-157.1240
3040.000000	99.843	-157.4203
3070.000000	99.736	-157.5570
3110.000000	99.605	-157.6366
3150.000000	99.489	-157.6202
3200.000000	99.370	-157.5049
3250.000000	99.282	-157.3327
3300.000000	99.226	-157.1708
3350.000000	99.200	-157.0782
3400.000000	99.195	-157.1006
3450.000000	99.202	-157.2675
3500.000000	99.212	-157.5551
3550.000000	99.223	-157.9124
3600.000000	99.244	-158.3305
3650.000000	99.286	-158.8879
3700.000000	99.342	-159.7314
3750.000000	99.389	-160.9754
3820.000000	99.376	-163.3595
3870.000000	99.272	-165.3241
3950.000000	98.915	-168.2538
4000.000000	98.587	-169.5691
4060.000000	98.130	-170.3521
4120.000000	97.653	-170.1686
4180.000000	97.209	-169.0624
4250.000000	96.794	-166.8188
4310.000000	96.564	-164.3366
4370.000000	96.471	-161.6182
4440.000000	96.539	-158.4954
4500.000000	96.740	-156.1301
4550.000000	96.996	-154.5414
4620.000000	97.466	-153.1178
4680.000000	97.939	-152.8133
4750.000000	98.525	-153.7278
4820.000000	99.075	-156.1693
4870.000000	99.393	-158.8408
4940.000000	99.665	-163.6398
5000.000000	99.697	-168.3600
5080.000000	99.425	-174.7361
5150.000000	98.922	-179.6833
5220.000000	98.235	176.4362
5300.000000	97.326	173.5202
5380.000000	96.377	172.1332
5450.000000	95.567	171.9789
5520.000000	94.803	172.6267
5600.000000	94.002	174.1457
5700.000000	93.116	176.9446
5800.000000	92.361	-179.5014
5900.000000	91.734	-175.3876
6000.000000	91.229	-170.8472
6080.000000	90.912	-166.9747
6150.000000	90.698	-163.4474
6220.000000	90.542	-159.8149
6300.000000	90.438	-155.5653
6400.000000	90.423	-150.1546
6500.000000	90.539	-144.7051
6600.000000	90.797	-139.3116
6700.000000	91.209	-134.0915
6800.000000	91.786	-129.2067
6900.000000	92.535	-124.8784
7000.000000	93.453	-121.3797
7100.000000	94.522	-119.0399
7200.000000	95.697	-118.2163
7300.000000	96.910	-119.2142
7400.000000	98.068	-122.1984
7500.000000	99.077	-127.0658
7620.000000	99.986	-134.7344
7750.000000	100.572	-143.9567
7880.000000	100.832	-152.8991
8000.000000	100.906	-160.5862
8120.000000	100.900	-168.0515
8250.000000	100.799	-176.4412
8380.000000	100.522	174.5879
8500.000000	100.029	166.1010
8620.000000	99.270	158.1299
8750.000000	98.180	150.9146
8850.000000	97.211	146.7110
9000.000000	95.671	142.6891
9120.000000	94.459	141.1996
9250.000000	93.234	140.9045
9380.000000	92.129	141.5906
9500.000000	91.223	142.8223
9620.000000	90.424	144.4300
9750.000000	89.672	146.4159
9880.000000	89.027	148.4947
10000.000000	88.511	150.3869
10150.000000	87.947	152.6461
10300.000000	87.444	154.8313
10440.000000	87.019	156.9319
10600.000000	86.602	159.5539
10750.000000	86.317	162.2386
10900.000000	86.175	164.9548
11060.000000	86.208	167.5078
11200.000000	86.388	169.0740
11380.000000	86.778	169.6842
11500.000000	87.101	169.0450
11720.000000	87.738	165.1249
11800.000000	87.933	162.6456
12060.000000	88.119	151.4004
12200.000000	87.851	144.4921
12410.000000	87.008	135.0183
12500.000000	86.532	131.5927
12650.000000	85.660	126.8033
12800.000000	84.765	122.9354
13150.000000	82.761	115.0663
13200.000000	82.472	113.9189
13400.000000	81.245	109.2950
13600.000000	79.865	104.9121
13800.000000	78.298	101.2793
14000.000000	76.533	99.1314
14300.000000	73.678	100.1998
14500.000000	71.882	103.1606
14750.000000	69.780	108.0660
15000.000000	67.605	116.2645
15250.000000	65.641	130.7324
15500.000000	65.202	150.6770
15750.000000	67.713	167.5803
16000.000000	70.852	166.5286
16250.000000	71.806	151.2443
16500.000000	70.998	140.1295
16750.000000	69.647	135.6354
17000.000000	68.473	135.0554
17250.000000	67.681	136.2938
17500.000000	67.267	138.1931
17750.000000	67.198	140.0453
18000.000000	67.453	141.3977
18250.000000	68.015	141.9019
18500.000000	68.886	141.2474
18750.000000	70.080	139.1096
19000.000000	71.603	134.9408
19250.000000	73.410	128.0055
19500.000000	75.340	117.7496
19750.000000	77.033	105.4208
