* Measurement data measured by REW V5.20.13
* Source: Primary Sound Capture Driver, no input selected, R, volume: no control
* Format: 256k Log Swept Sine, 1 sweep at 0.0 dBFS with no timing reference
* Dated: 09/11/2023 11:05:53 AM
* REW Settings:
*  C-weighting compensation: Off
*  Target level: 75.0 dB
* Note: ; 
* Measurement: Noble Zephyr L
* Smoothing: 1/24 octave
* Frequency Step: 1/48 octave
* Start Frequency: 20.000 Hz
*
* Freq(Hz)	SPL(dB)	Phase(degrees)
20.000000	102.890	126.1842
20.299999	102.852	125.2400
20.600000	102.815	124.3235
20.900000	102.783	123.4305
21.200001	102.756	122.5406
21.400000	102.741	121.9333
21.799999	102.712	120.6683
22.000000	102.695	120.0105
22.400000	102.650	118.6689
22.700001	102.606	117.6815
23.000000	102.554	116.7505
23.299999	102.499	115.8918
23.600000	102.448	115.0970
24.000000	102.389	114.0978
24.299999	102.353	113.3531
24.700001	102.311	112.3286
25.000000	102.279	111.5317
25.400000	102.232	110.4494
25.799999	102.178	109.3778
26.200001	102.120	108.3442
26.500000	102.075	107.6021
26.900000	102.016	106.6587
27.200001	101.974	105.9820
27.600000	101.924	105.1089
28.000000	101.880	104.2505
28.500000	101.831	103.1817
29.000000	101.785	102.1362
29.500000	101.749	101.1371
30.000000	101.730	100.1326
30.400000	101.725	99.2446
30.700001	101.720	98.5013
31.100000	101.699	97.4311
31.500000	101.655	96.3541
32.000000	101.574	95.1545
32.500000	101.491	94.1820
33.000000	101.427	93.3202
33.500000	101.380	92.4147
34.000000	101.329	91.4328
34.500000	101.267	90.4604
35.000000	101.203	89.5561
35.500000	101.147	88.6893
36.000000	101.098	87.8048
36.500000	101.052	86.8934
37.000000	101.007	85.9713
37.500000	100.965	85.0340
38.200001	100.902	83.6869
38.700001	100.848	82.7529
39.500000	100.762	81.4409
40.000000	100.722	80.7032
40.599998	100.685	79.8119
41.200001	100.651	78.8862
41.799999	100.613	77.9598
42.500000	100.562	76.9086
43.099998	100.515	76.0358
43.700001	100.463	75.2036
44.400002	100.400	74.3070
45.000000	100.354	73.5894
45.500000	100.322	72.9874
46.200001	100.283	72.0887
46.799999	100.246	71.2876
47.500000	100.200	70.3929
48.200001	100.165	69.5103
48.700001	100.141	68.8321
49.400002	100.093	67.8544
50.000000	100.040	67.1238
50.799999	99.985	66.3420
51.500000	99.965	65.6224
52.200001	99.946	64.7458
53.000000	99.901	63.6895
53.799999	99.841	62.7140
54.500000	99.786	61.9281
55.200001	99.734	61.2064
56.000000	99.687	60.4214
57.000000	99.641	59.3642
58.000000	99.585	58.3007
59.000000	99.533	57.3469
60.000000	99.491	56.3963
60.799999	99.455	55.6222
61.500000	99.420	54.9614
62.200001	99.384	54.3219
63.000000	99.343	53.6113
64.000000	99.290	52.7523
65.000000	99.240	51.9244
66.000000	99.193	51.1113
67.000000	99.146	50.3036
68.000000	99.096	49.5251
69.000000	99.047	48.7993
70.000000	99.000	48.1118
71.000000	98.956	47.4532
72.000000	98.917	46.8073
73.000000	98.881	46.1491
74.000000	98.845	45.4851
75.000000	98.809	44.8264
76.199997	98.768	44.0522
77.500000	98.725	43.2325
78.800003	98.683	42.4228
80.000000	98.642	41.6803
81.199997	98.596	40.9676
82.500000	98.547	40.2346
83.800003	98.501	39.5192
85.000000	98.460	38.8366
86.199997	98.412	38.1648
87.500000	98.357	37.4963
88.500000	98.317	37.0223
90.000000	98.257	36.3512
91.199997	98.208	35.8583
92.500000	98.155	35.4043
93.800003	98.109	34.9810
95.000000	98.060	34.6254
96.199997	98.012	34.4012
97.500000	97.982	34.2879
98.800003	97.983	34.1778
100.000000	98.006	33.9835
101.500000	98.050	33.5559
103.000000	98.093	32.8989
104.400002	98.111	32.1451
106.000000	98.107	31.3158
107.500000	98.098	30.6201
109.000000	98.087	29.9820
110.599998	98.079	29.3779
112.000000	98.079	28.8694
113.800003	98.084	28.1526
115.000000	98.086	27.6201
117.199997	98.078	26.5577
118.000000	98.071	26.1558
120.599998	98.033	24.8583
122.000000	98.005	24.1918
124.099998	97.954	23.2516
125.000000	97.930	22.8711
126.500000	97.888	22.2675
128.000000	97.845	21.7014
131.500000	97.742	20.5040
132.000000	97.728	20.3438
134.000000	97.669	19.7196
136.000000	97.611	19.1241
138.000000	97.555	18.5575
140.000000	97.498	18.0125
143.000000	97.412	17.2548
145.000000	97.357	16.7912
147.500000	97.293	16.2345
150.000000	97.227	15.7076
152.500000	97.161	15.2299
155.000000	97.098	14.7971
157.500000	97.041	14.3873
160.000000	96.985	14.0009
162.500000	96.935	13.6458
165.000000	96.893	13.2747
167.500000	96.854	12.8842
170.000000	96.813	12.4868
172.500000	96.766	12.1029
175.000000	96.717	11.7321
177.500000	96.667	11.3760
180.000000	96.616	11.0358
182.500000	96.565	10.7264
185.000000	96.515	10.4574
187.500000	96.465	10.2363
190.000000	96.418	10.0698
192.500000	96.379	9.9369
195.000000	96.350	9.8143
197.500000	96.333	9.6751
200.000000	96.325	9.4810
203.000000	96.317	9.1436
206.000000	96.304	8.7057
209.000000	96.278	8.2129
212.000000	96.241	7.7214
214.000000	96.211	7.4105
218.000000	96.144	6.8502
220.000000	96.106	6.6118
224.000000	96.031	6.1858
227.000000	95.974	5.8804
230.000000	95.917	5.5974
233.000000	95.861	5.3409
236.000000	95.806	5.1041
240.000000	95.733	4.8143
243.000000	95.679	4.6205
247.000000	95.610	4.3879
250.000000	95.558	4.2252
254.000000	95.487	4.0267
258.000000	95.418	3.8479
262.000000	95.352	3.6800
265.000000	95.304	3.5636
269.000000	95.242	3.4189
272.000000	95.195	3.3206
276.000000	95.132	3.2078
280.000000	95.072	3.1022
285.000000	94.997	2.9885
290.000000	94.922	2.9009
295.000000	94.849	2.8274
300.000000	94.778	2.7623
304.000000	94.722	2.7211
307.000000	94.680	2.6957
311.000000	94.625	2.6649
315.000000	94.571	2.6461
320.000000	94.505	2.6441
325.000000	94.438	2.6526
330.000000	94.372	2.6654
335.000000	94.309	2.6827
340.000000	94.247	2.7192
345.000000	94.185	2.7760
350.000000	94.123	2.8362
355.000000	94.063	2.9001
360.000000	94.003	2.9796
365.000000	93.944	3.0703
370.000000	93.885	3.1730
375.000000	93.827	3.2847
382.000000	93.749	3.4344
387.000000	93.694	3.5558
395.000000	93.608	3.7722
400.000000	93.555	3.9067
406.000000	93.494	4.0813
412.000000	93.432	4.2740
418.000000	93.371	4.4717
425.000000	93.302	4.7126
431.000000	93.246	4.9306
437.000000	93.189	5.1531
444.000000	93.123	5.4188
450.000000	93.069	5.6537
455.000000	93.024	5.8584
462.000000	92.963	6.1556
468.000000	92.912	6.4186
475.000000	92.854	6.7320
482.000000	92.796	7.0562
487.000000	92.755	7.2928
494.000000	92.698	7.6316
500.000000	92.650	7.9353
508.000000	92.588	8.3450
515.000000	92.536	8.7029
522.000000	92.484	9.0716
530.000000	92.427	9.5054
538.000000	92.373	9.9493
545.000000	92.325	10.3452
552.000000	92.278	10.7437
560.000000	92.225	11.2085
570.000000	92.160	11.8101
580.000000	92.098	12.4225
590.000000	92.040	13.0404
600.000000	91.984	13.6668
608.000000	91.941	14.1784
615.000000	91.905	14.6334
622.000000	91.870	15.0950
630.000000	91.831	15.6295
640.000000	91.784	16.3091
650.000000	91.741	17.0062
660.000000	91.703	17.7053
670.000000	91.666	18.3826
680.000000	91.629	19.0570
690.000000	91.591	19.7635
700.000000	91.557	20.4963
710.000000	91.527	21.2415
720.000000	91.498	21.9963
730.000000	91.472	22.7577
740.000000	91.449	23.5264
750.000000	91.429	24.3013
762.000000	91.409	25.2411
775.000000	91.392	26.2628
788.000000	91.381	27.2943
800.000000	91.377	28.2657
812.000000	91.377	29.2478
825.000000	91.383	30.3126
838.000000	91.396	31.3665
850.000000	91.414	32.3329
862.000000	91.436	33.3070
875.000000	91.467	34.3579
885.000000	91.495	35.1512
900.000000	91.545	36.3175
912.000000	91.591	37.2368
925.000000	91.647	38.2174
938.000000	91.707	39.1805
950.000000	91.766	40.0448
962.000000	91.830	40.8813
975.000000	91.904	41.7580
988.000000	91.981	42.6017
1000.000000	92.056	43.3506
1015.000000	92.154	44.2444
1030.000000	92.257	45.0819
1044.000000	92.355	45.8139
1060.000000	92.467	46.6088
1075.000000	92.573	47.3105
1090.000000	92.678	47.9597
1106.000000	92.790	48.5929
1120.000000	92.887	49.1108
1138.000000	93.010	49.7337
1150.000000	93.089	50.1201
1172.000000	93.231	50.7780
1180.000000	93.281	51.0025
1206.000000	93.440	51.6830
1220.000000	93.521	52.0262
1241.000000	93.637	52.5252
1250.000000	93.684	52.7357
1265.000000	93.761	53.0801
1280.000000	93.836	53.4160
1315.000000	94.004	54.1934
1320.000000	94.027	54.3058
1340.000000	94.120	54.7625
1360.000000	94.211	55.2339
1380.000000	94.304	55.7144
1400.000000	94.399	56.1913
1430.000000	94.549	56.8735
1450.000000	94.649	57.2879
1475.000000	94.771	57.7651
1500.000000	94.887	58.2213
1525.000000	95.002	58.6711
1550.000000	95.115	59.1225
1575.000000	95.229	59.5802
1600.000000	95.343	60.0420
1625.000000	95.460	60.4951
1650.000000	95.577	60.9361
1675.000000	95.695	61.3715
1700.000000	95.816	61.7888
1725.000000	95.940	62.1803
1750.000000	96.068	62.5520
1775.000000	96.196	62.9004
1800.000000	96.326	63.2223
1825.000000	96.457	63.5194
1850.000000	96.588	63.7851
1875.000000	96.721	64.0151
1900.000000	96.854	64.2120
1925.000000	96.987	64.3760
1950.000000	97.120	64.5033
1975.000000	97.252	64.5947
2000.000000	97.383	64.6500
2030.000000	97.538	64.6649
2060.000000	97.689	64.6299
2090.000000	97.835	64.5489
2120.000000	97.973	64.4266
2140.000000	98.061	64.3298
2180.000000	98.227	64.1026
2200.000000	98.304	63.9734
2240.000000	98.448	63.7178
2270.000000	98.546	63.5580
2300.000000	98.640	63.4366
2330.000000	98.733	63.3557
2360.000000	98.828	63.3097
2400.000000	98.963	63.2857
2430.000000	99.070	63.2756
2470.000000	99.221	63.2349
2500.000000	99.342	63.1696
2540.000000	99.509	63.0375
2580.000000	99.681	62.8681
2620.000000	99.863	62.6381
2650.000000	100.011	62.3822
2690.000000	100.220	61.8634
2720.000000	100.374	61.3090
2760.000000	100.561	60.3565
2800.000000	100.714	59.2346
2850.000000	100.858	57.7377
2900.000000	100.956	56.2789
2950.000000	101.019	54.9306
3000.000000	101.057	53.6936
3040.000000	101.074	52.7947
3070.000000	101.080	52.1829
3110.000000	101.083	51.4595
3150.000000	101.083	50.8398
3200.000000	101.085	50.1918
3250.000000	101.096	49.6571
3300.000000	101.120	49.1967
3350.000000	101.159	48.7737
3400.000000	101.209	48.3561
3450.000000	101.269	47.9252
3500.000000	101.336	47.4870
3550.000000	101.411	47.0437
3600.000000	101.500	46.5813
3650.000000	101.603	46.0730
3700.000000	101.717	45.4856
3750.000000	101.841	44.7932
3820.000000	102.026	43.6075
3870.000000	102.165	42.5905
3950.000000	102.387	40.6683
4000.000000	102.523	39.2662
4060.000000	102.679	37.3444
4120.000000	102.820	35.1310
4180.000000	102.936	32.6148
4250.000000	103.022	29.2976
4310.000000	103.034	26.1403
4370.000000	102.972	22.8224
4440.000000	102.806	18.9360
4500.000000	102.584	15.7289
4550.000000	102.347	13.2274
4620.000000	101.949	10.0718
4680.000000	101.560	7.7371
4750.000000	101.067	5.4793
4820.000000	100.544	3.7299
4870.000000	100.159	2.7811
4940.000000	99.615	1.8478
5000.000000	99.152	1.3860
5080.000000	98.543	1.2244
5150.000000	98.021	1.5016
5220.000000	97.515	2.1704
5300.000000	96.966	3.4133
5380.000000	96.461	5.1638
5450.000000	96.066	7.1060
5520.000000	95.730	9.4037
5600.000000	95.446	12.3539
5700.000000	95.268	16.1815
5800.000000	95.282	19.6280
5900.000000	95.425	22.2430
6000.000000	95.612	23.9352
6080.000000	95.751	24.7757
6150.000000	95.852	25.2907
6220.000000	95.935	25.7162
6300.000000	96.019	26.1904
6400.000000	96.130	26.8252
6500.000000	96.273	27.4481
6600.000000	96.459	27.9127
6700.000000	96.680	28.1172
6800.000000	96.933	28.0071
6900.000000	97.206	27.5404
7000.000000	97.493	26.6827
7100.000000	97.785	25.3903
7200.000000	98.069	23.6224
7300.000000	98.325	21.3768
7400.000000	98.531	18.7129
7500.000000	98.673	15.7875
7620.000000	98.772	12.2266
7750.000000	98.840	8.3958
7880.000000	98.888	4.4218
8000.000000	98.913	0.5779
8120.000000	98.932	-3.4930
8250.000000	98.956	-8.3787
8380.000000	98.958	-14.0869
8500.000000	98.886	-20.3143
8620.000000	98.667	-27.4397
8750.000000	98.187	-35.7616
8850.000000	97.617	-42.1080
9000.000000	96.449	-50.6000
9120.000000	95.305	-55.9625
9250.000000	93.943	-60.1393
9380.000000	92.521	-62.6430
9500.000000	91.205	-63.3902
9620.000000	89.989	-62.9131
9750.000000	88.828	-61.9396
9880.000000	87.744	-60.5447
10000.000000	86.808	-58.7264
10150.000000	85.757	-55.9449
10300.000000	84.842	-52.8442
10440.000000	84.103	-49.8133
10600.000000	83.382	-46.3191
10750.000000	82.817	-43.1266
10900.000000	82.351	-40.1149
11060.000000	81.950	-37.2083
11200.000000	81.665	-35.0121
11380.000000	81.363	-32.7756
11500.000000	81.182	-31.6865
11720.000000	80.827	-30.3721
11800.000000	80.680	-29.9886
12060.000000	80.181	-28.6642
12200.000000	79.904	-27.8481
12410.000000	79.541	-26.1029
12500.000000	79.442	-25.2805
12650.000000	79.365	-24.1778
12800.000000	79.367	-23.7527
13150.000000	79.329	-25.8534
13200.000000	79.292	-26.3972
13400.000000	79.039	-28.6786
13600.000000	78.650	-30.6246
13800.000000	78.199	-31.8644
14000.000000	77.763	-32.3395
14300.000000	77.276	-31.9734
14500.000000	77.123	-31.4144
14750.000000	77.164	-30.8697
15000.000000	77.490	-30.9696
15250.000000	78.123	-32.2872
15500.000000	79.075	-35.5697
15750.000000	80.314	-41.8966
16000.000000	81.691	-52.6607
16250.000000	82.896	-68.9562
16500.000000	83.615	-90.4128
16750.000000	83.696	-115.7087
17000.000000	83.006	-143.3959
17250.000000	81.430	-170.5668
17500.000000	79.093	165.8555
17750.000000	76.350	146.5753
18000.000000	73.575	130.3242
18250.000000	71.021	115.3251
18500.000000	68.806	100.0340
18750.000000	66.941	83.3022
19000.000000	65.369	64.3661
19250.000000	63.972	43.1038
19500.000000	62.603	20.4887
19750.000000	61.217	-0.2682
