* Measurement data measured by REW V5.20.13
* Source: Primary Sound Capture Driver, no input selected, R, volume: no control
* Format: 256k Log Swept Sine, 1 sweep at -5.5 dBFS with no timing reference
* Dated: 01/11/2023 2:34:11 PM
* REW Settings:
*  C-weighting compensation: Off
*  Target level: 75.0 dB
* Note: ; 
* Measurement: Subtonic STORM L
* Smoothing: 1/24 octave
* Frequency Step: 1/48 octave
* Start Frequency: 20.000 Hz
*
* Freq(Hz)	SPL(dB)	Phase(degrees)
20.000000	103.894	158.7106
20.299999	103.832	157.9541
20.600000	103.763	157.3249
20.900000	103.697	156.8483
21.200001	103.646	156.5049
21.400000	103.626	156.3079
21.799999	103.620	155.8892
22.000000	103.630	155.6188
22.400000	103.662	154.8903
22.700001	103.682	154.1917
23.000000	103.690	153.4135
23.299999	103.685	152.6130
23.600000	103.671	151.8246
24.000000	103.641	150.8159
24.299999	103.614	150.0884
24.700001	103.570	149.1603
25.000000	103.529	148.5231
25.400000	103.469	147.8125
25.799999	103.415	147.3041
26.200001	103.389	146.9461
26.500000	103.393	146.6851
26.900000	103.423	146.2220
27.200001	103.451	145.7370
27.600000	103.475	144.9254
28.000000	103.470	144.0425
28.500000	103.430	143.0417
29.000000	103.380	142.2315
29.500000	103.344	141.4884
30.000000	103.316	140.6422
30.400000	103.284	139.8642
30.700001	103.250	139.2503
31.100000	103.192	138.4426
31.500000	103.126	137.6765
32.000000	103.043	136.7682
32.500000	102.963	135.8727
33.000000	102.885	134.9901
33.500000	102.810	134.1743
34.000000	102.751	133.4510
34.500000	102.718	132.7529
35.000000	102.706	131.9932
35.500000	102.697	131.1814
36.000000	102.685	130.4245
36.500000	102.685	129.7715
37.000000	102.708	129.1059
37.500000	102.739	128.2576
38.200001	102.731	126.7518
38.700001	102.661	125.6878
39.500000	102.474	124.4351
40.000000	102.339	123.9471
40.599998	102.182	123.6107
41.200001	102.059	123.4377
41.799999	101.987	123.1314
42.500000	101.926	122.2565
43.099998	101.838	121.2135
43.700001	101.723	120.2679
44.400002	101.613	119.3638
45.000000	101.555	118.5507
45.500000	101.514	117.7990
46.200001	101.458	116.7764
46.799999	101.421	115.9841
47.500000	101.392	115.0152
48.200001	101.342	113.9347
48.700001	101.275	113.2056
49.400002	101.150	112.4639
50.000000	101.045	112.1232
50.799999	100.953	111.7861
51.500000	100.902	111.2573
52.200001	100.836	110.4786
53.000000	100.728	109.5519
53.799999	100.618	108.7482
54.500000	100.540	108.0797
55.200001	100.475	107.3871
56.000000	100.409	106.5628
57.000000	100.326	105.4844
58.000000	100.222	104.4846
59.000000	100.117	103.6236
60.000000	100.009	102.7261
60.799999	99.907	102.0545
61.500000	99.823	101.5658
62.200001	99.758	101.0731
63.000000	99.696	100.3730
64.000000	99.605	99.4011
65.000000	99.511	98.5204
66.000000	99.425	97.6311
67.000000	99.328	96.7789
68.000000	99.233	96.0565
69.000000	99.152	95.3192
70.000000	99.068	94.5016
71.000000	98.969	93.7052
72.000000	98.872	93.0129
73.000000	98.791	92.3309
74.000000	98.710	91.5627
75.000000	98.613	90.8152
76.199997	98.498	90.0600
77.500000	98.393	89.2227
78.800003	98.286	88.3136
80.000000	98.182	87.5284
81.199997	98.092	86.8170
82.500000	98.006	85.9639
83.800003	97.903	85.0561
85.000000	97.789	84.3018
86.199997	97.678	83.6975
87.500000	97.583	83.0656
88.500000	97.520	82.4911
90.000000	97.417	81.5373
91.199997	97.323	80.8141
92.500000	97.222	80.1268
93.800003	97.133	79.4771
95.000000	97.060	78.8205
96.199997	96.984	78.0984
97.500000	96.891	77.3432
98.800003	96.804	76.7082
100.000000	96.732	76.1374
101.500000	96.637	75.4759
103.000000	96.542	74.8817
104.400002	96.456	74.3040
106.000000	96.354	73.5930
107.500000	96.261	72.9119
109.000000	96.175	72.2171
110.599998	96.086	71.4984
112.000000	96.010	70.9129
113.800003	95.910	70.2092
115.000000	95.844	69.7654
117.199997	95.730	68.8996
118.000000	95.688	68.5551
120.599998	95.549	67.4837
122.000000	95.481	66.9539
124.099998	95.384	66.1732
125.000000	95.342	65.8363
126.500000	95.269	65.2851
128.000000	95.197	64.7543
131.500000	95.042	63.5902
132.000000	95.021	63.4326
134.000000	94.936	62.8100
136.000000	94.846	62.1931
138.000000	94.756	61.5809
140.000000	94.671	60.9938
143.000000	94.557	60.1648
145.000000	94.480	59.6143
147.500000	94.379	58.9708
150.000000	94.283	58.3714
152.500000	94.187	57.8058
155.000000	94.088	57.2982
157.500000	93.991	56.8941
160.000000	93.907	56.6562
162.500000	93.841	56.5175
165.000000	93.795	56.4340
167.500000	93.782	56.3901
170.000000	93.810	56.2920
172.500000	93.867	55.9688
175.000000	93.927	55.3491
177.500000	93.972	54.5103
180.000000	93.989	53.5662
182.500000	93.982	52.6072
185.000000	93.961	51.7017
187.500000	93.930	50.8999
190.000000	93.890	50.1903
192.500000	93.847	49.5329
195.000000	93.807	48.9000
197.500000	93.768	48.3000
200.000000	93.731	47.7378
203.000000	93.693	47.0675
206.000000	93.659	46.3911
209.000000	93.627	45.7570
212.000000	93.598	45.1579
214.000000	93.580	44.7741
218.000000	93.548	44.0423
220.000000	93.533	43.6977
224.000000	93.509	43.0122
227.000000	93.493	42.4882
230.000000	93.479	41.9634
233.000000	93.467	41.4368
236.000000	93.456	40.9099
240.000000	93.443	40.2240
243.000000	93.437	39.7055
247.000000	93.432	39.0158
250.000000	93.428	38.5233
254.000000	93.423	37.8936
258.000000	93.420	37.2422
262.000000	93.417	36.5850
265.000000	93.417	36.1132
269.000000	93.423	35.5021
272.000000	93.428	35.0335
276.000000	93.429	34.3846
280.000000	93.430	33.7432
285.000000	93.437	32.9714
290.000000	93.449	32.1832
295.000000	93.460	31.4072
300.000000	93.467	30.6696
304.000000	93.474	30.0841
307.000000	93.481	29.6334
311.000000	93.489	29.0301
315.000000	93.497	28.4418
320.000000	93.510	27.7080
325.000000	93.523	26.9753
330.000000	93.533	26.2742
335.000000	93.545	25.5807
340.000000	93.562	24.8503
345.000000	93.575	24.1279
350.000000	93.584	23.4473
355.000000	93.600	22.7617
360.000000	93.621	22.0540
365.000000	93.638	21.3362
370.000000	93.649	20.6250
375.000000	93.657	19.9384
382.000000	93.670	18.9916
387.000000	93.679	18.3157
395.000000	93.692	17.2813
400.000000	93.704	16.6519
406.000000	93.711	15.8619
412.000000	93.716	15.0573
418.000000	93.730	14.3032
425.000000	93.744	13.4434
431.000000	93.748	12.6708
437.000000	93.752	11.9133
444.000000	93.759	11.0638
450.000000	93.763	10.3260
455.000000	93.764	9.7068
462.000000	93.764	8.8747
468.000000	93.763	8.2061
475.000000	93.758	7.4170
482.000000	93.755	6.6041
487.000000	93.754	6.0544
494.000000	93.749	5.3180
500.000000	93.744	4.6598
508.000000	93.738	3.7750
515.000000	93.732	3.0597
522.000000	93.723	2.3665
530.000000	93.713	1.5551
538.000000	93.701	0.7574
545.000000	93.688	0.0942
552.000000	93.673	-0.5560
560.000000	93.658	-1.3004
570.000000	93.637	-2.1877
580.000000	93.613	-3.0430
590.000000	93.590	-3.9092
600.000000	93.567	-4.7224
608.000000	93.547	-5.3459
615.000000	93.528	-5.8914
622.000000	93.508	-6.4224
630.000000	93.487	-6.9928
640.000000	93.462	-7.6821
650.000000	93.437	-8.3877
660.000000	93.409	-9.0614
670.000000	93.381	-9.6763
680.000000	93.355	-10.2617
690.000000	93.330	-10.8289
700.000000	93.302	-11.3928
710.000000	93.277	-11.9426
720.000000	93.255	-12.4490
730.000000	93.231	-12.9131
740.000000	93.206	-13.3519
750.000000	93.187	-13.7815
762.000000	93.169	-14.2953
775.000000	93.147	-14.8105
788.000000	93.131	-15.2677
800.000000	93.120	-15.6785
812.000000	93.103	-16.0687
825.000000	93.088	-16.4369
838.000000	93.089	-16.7756
850.000000	93.091	-17.1045
862.000000	93.093	-17.4443
875.000000	93.108	-17.7649
885.000000	93.127	-17.9807
900.000000	93.151	-18.3381
912.000000	93.171	-18.6438
925.000000	93.202	-18.9367
938.000000	93.238	-19.2116
950.000000	93.268	-19.4910
962.000000	93.302	-19.7864
975.000000	93.351	-20.1007
988.000000	93.405	-20.4327
1000.000000	93.454	-20.7744
1015.000000	93.520	-21.2117
1030.000000	93.597	-21.6486
1044.000000	93.667	-22.1096
1060.000000	93.743	-22.6935
1075.000000	93.817	-23.2280
1090.000000	93.890	-23.7552
1106.000000	93.965	-24.3842
1120.000000	94.034	-24.9891
1138.000000	94.125	-25.7784
1150.000000	94.183	-26.3096
1172.000000	94.285	-27.3146
1180.000000	94.322	-27.6885
1206.000000	94.438	-28.9408
1220.000000	94.495	-29.6316
1241.000000	94.575	-30.6525
1250.000000	94.608	-31.0830
1265.000000	94.660	-31.8076
1280.000000	94.708	-32.5468
1315.000000	94.816	-34.2240
1320.000000	94.832	-34.4579
1340.000000	94.893	-35.4047
1360.000000	94.956	-36.3577
1380.000000	95.019	-37.2831
1400.000000	95.078	-38.1825
1430.000000	95.162	-39.5057
1450.000000	95.216	-40.3727
1475.000000	95.283	-41.4363
1500.000000	95.352	-42.4802
1525.000000	95.425	-43.5196
1550.000000	95.505	-44.5717
1575.000000	95.585	-45.6168
1600.000000	95.667	-46.6360
1625.000000	95.752	-47.6770
1650.000000	95.838	-48.7511
1675.000000	95.925	-49.8170
1700.000000	96.009	-50.8883
1725.000000	96.092	-51.9775
1750.000000	96.177	-53.0779
1775.000000	96.261	-54.1952
1800.000000	96.343	-55.3076
1825.000000	96.424	-56.4012
1850.000000	96.504	-57.4990
1875.000000	96.588	-58.6079
1900.000000	96.674	-59.7230
1925.000000	96.761	-60.8517
1950.000000	96.849	-61.9969
1975.000000	96.937	-63.1643
2000.000000	97.025	-64.3633
2030.000000	97.126	-65.8271
2060.000000	97.222	-67.3051
2090.000000	97.313	-68.8195
2120.000000	97.399	-70.3555
2140.000000	97.453	-71.3799
2180.000000	97.553	-73.4541
2200.000000	97.598	-74.4979
2240.000000	97.675	-76.5491
2270.000000	97.722	-78.0690
2300.000000	97.765	-79.5846
2330.000000	97.803	-81.0749
2360.000000	97.833	-82.5203
2400.000000	97.864	-84.3524
2430.000000	97.884	-85.6473
2470.000000	97.911	-87.2645
2500.000000	97.935	-88.3833
2540.000000	97.977	-89.7959
2580.000000	98.037	-91.1989
2620.000000	98.112	-92.6149
2650.000000	98.173	-93.7106
2690.000000	98.257	-95.2164
2720.000000	98.317	-96.3411
2760.000000	98.398	-97.8194
2800.000000	98.485	-99.2949
2850.000000	98.604	-101.0987
2900.000000	98.740	-102.8859
2950.000000	98.902	-104.7996
3000.000000	99.088	-106.9277
3040.000000	99.245	-108.8589
3070.000000	99.363	-110.4820
3110.000000	99.505	-112.8950
3150.000000	99.614	-115.5617
3200.000000	99.676	-119.1228
3250.000000	99.642	-122.7273
3300.000000	99.515	-126.0887
3350.000000	99.317	-128.9547
3400.000000	99.091	-131.2627
3450.000000	98.870	-133.0203
3500.000000	98.672	-134.2626
3550.000000	98.521	-135.1530
3600.000000	98.438	-135.8853
3650.000000	98.420	-136.5919
3700.000000	98.457	-137.3927
3750.000000	98.536	-138.4226
3820.000000	98.687	-140.4178
3870.000000	98.793	-142.2863
3950.000000	98.910	-146.0615
4000.000000	98.918	-148.8204
4060.000000	98.831	-152.2966
4120.000000	98.626	-155.6669
4180.000000	98.314	-158.6067
4250.000000	97.840	-161.0064
4310.000000	97.394	-161.9358
4370.000000	96.998	-161.8843
4440.000000	96.686	-160.9375
4500.000000	96.569	-159.8575
4550.000000	96.568	-159.1496
4620.000000	96.658	-158.7962
4680.000000	96.754	-159.0460
4750.000000	96.833	-159.6822
4820.000000	96.882	-160.4086
4870.000000	96.915	-160.8876
4940.000000	96.973	-161.4414
5000.000000	97.047	-161.8316
5080.000000	97.214	-162.4238
5150.000000	97.435	-163.2388
5220.000000	97.704	-164.5128
5300.000000	98.036	-166.7924
5380.000000	98.351	-170.2406
5450.000000	98.539	-174.2084
5520.000000	98.568	-178.7601
5600.000000	98.365	175.9083
5700.000000	97.795	170.1772
5800.000000	96.991	166.5488
5900.000000	96.123	165.2879
6000.000000	95.363	165.9372
6080.000000	94.898	167.3992
6150.000000	94.611	169.0989
6220.000000	94.441	170.9683
6300.000000	94.401	173.0357
6400.000000	94.568	175.0848
6500.000000	94.926	176.0051
6600.000000	95.404	175.1234
6700.000000	95.860	171.8875
6800.000000	96.085	166.2419
6900.000000	95.890	158.9514
7000.000000	95.171	151.6727
7100.000000	93.926	146.3807
7200.000000	92.233	144.7820
7300.000000	90.220	148.6155
7400.000000	88.198	159.7979
7500.000000	87.104	177.9302
7620.000000	88.385	-159.6620
7750.000000	91.240	-146.8231
7880.000000	93.673	-146.1534
8000.000000	95.241	-151.0389
8120.000000	96.253	-157.7925
8250.000000	96.861	-165.4361
8380.000000	97.077	-172.5310
8500.000000	97.009	-178.1403
8620.000000	96.754	177.4285
8750.000000	96.353	174.0920
8850.000000	96.013	172.5240
9000.000000	95.527	171.5727
9120.000000	95.198	171.7659
9250.000000	94.937	172.6357
9380.000000	94.791	173.9083
9500.000000	94.762	175.2034
9620.000000	94.828	176.4033
9750.000000	94.991	177.3679
9880.000000	95.220	177.7795
10000.000000	95.453	177.5380
10150.000000	95.716	176.3399
10300.000000	95.881	174.3188
10440.000000	95.903	172.0759
10600.000000	95.765	169.6553
10750.000000	95.514	167.9042
10900.000000	95.193	166.8000
11060.000000	94.797	166.4098
11200.000000	94.425	166.8766
11380.000000	93.991	168.6790
11500.000000	93.781	170.4165
11720.000000	93.565	173.9232
11800.000000	93.520	175.2573
12060.000000	93.509	-179.8703
12200.000000	93.640	-176.9706
12410.000000	94.084	-172.7862
12500.000000	94.371	-171.2629
12650.000000	94.965	-169.4150
12800.000000	95.659	-168.8011
13150.000000	97.180	-173.7969
13200.000000	97.330	-175.2345
13400.000000	97.631	177.9774
13600.000000	97.421	171.1222
13800.000000	96.795	166.1141
14000.000000	95.962	163.8478
14300.000000	94.785	164.9630
14500.000000	94.249	167.5189
14750.000000	93.912	171.2834
15000.000000	93.872	174.6352
15250.000000	94.015	177.1266
15500.000000	94.292	178.6432
15750.000000	94.701	178.7150
16000.000000	95.127	176.1890
16250.000000	95.231	170.6852
16500.000000	94.732	164.6046
16750.000000	93.736	161.0446
17000.000000	92.583	160.6663
17250.000000	91.470	162.6597
17500.000000	90.474	166.8089
17750.000000	89.755	172.6881
18000.000000	89.425	179.2622
18250.000000	89.505	-174.5686
18500.000000	89.933	-169.8821
18750.000000	90.574	-167.4802
19000.000000	91.299	-167.8699
19250.000000	91.936	-171.6957
19500.000000	92.230	-178.8990
19750.000000	92.059	172.7281
