* Measurement data measured by REW V5.20.13
* Source: Primary Sound Capture Driver, no input selected, R, volume: no control
* Format: 256k Log Swept Sine, 1 sweep at -6.0 dBFS with no timing reference
* Dated: 01/11/2023 2:32:31 PM
* REW Settings:
*  C-weighting compensation: Off
*  Target level: 75.0 dB
* Note: ; 
* Measurement: Subtonic STORM R
* Smoothing: 1/24 octave
* Frequency Step: 1/48 octave
* Start Frequency: 20.000 Hz
*
* Freq(Hz)	SPL(dB)	Phase(degrees)
20.000000	103.209	163.3176
20.299999	103.193	162.6163
20.600000	103.172	161.9455
20.900000	103.151	161.3195
21.200001	103.133	160.7383
21.400000	103.125	160.3622
21.799999	103.117	159.6011
22.000000	103.116	159.2000
22.400000	103.113	158.3406
22.700001	103.106	157.6628
23.000000	103.092	156.9874
23.299999	103.075	156.3376
23.600000	103.057	155.7163
24.000000	103.037	154.9134
24.299999	103.025	154.3038
24.700001	103.008	153.4595
25.000000	102.991	152.8101
25.400000	102.961	151.9551
25.799999	102.925	151.1489
26.200001	102.889	150.3976
26.500000	102.865	149.8550
26.900000	102.836	149.1370
27.200001	102.815	148.5952
27.600000	102.787	147.8719
28.000000	102.758	147.1576
28.500000	102.724	146.2745
29.000000	102.691	145.3778
29.500000	102.653	144.4614
30.000000	102.608	143.5640
30.400000	102.568	142.8932
30.700001	102.539	142.4242
31.100000	102.504	141.8320
31.500000	102.476	141.2514
32.000000	102.449	140.4952
32.500000	102.423	139.6736
33.000000	102.389	138.8022
33.500000	102.341	137.9357
34.000000	102.285	137.1319
34.500000	102.228	136.3974
35.000000	102.178	135.6840
35.500000	102.130	134.9398
36.000000	102.076	134.1719
36.500000	102.015	133.4296
37.000000	101.956	132.7280
37.500000	101.904	132.0139
38.200001	101.825	130.9212
38.700001	101.751	130.1674
39.500000	101.636	129.2758
40.000000	101.597	128.8108
40.599998	101.580	128.0890
41.200001	101.553	127.1530
41.799999	101.501	126.2061
42.500000	101.429	125.2435
43.099998	101.369	124.4915
43.700001	101.311	123.8003
44.400002	101.257	123.0471
45.000000	101.224	122.3127
45.500000	101.190	121.6085
46.200001	101.129	120.5939
46.799999	101.077	119.6602
47.500000	100.987	118.3315
48.200001	100.810	117.1752
48.700001	100.667	116.8501
49.400002	100.562	116.9106
50.000000	100.576	116.6859
50.799999	100.586	115.5886
51.500000	100.518	114.5867
52.200001	100.445	113.9062
53.000000	100.394	113.1555
53.799999	100.335	112.2931
54.500000	100.270	111.5810
55.200001	100.204	110.9075
56.000000	100.124	110.1520
57.000000	100.026	109.2354
58.000000	99.932	108.2864
59.000000	99.834	107.2873
60.000000	99.729	106.3646
60.799999	99.656	105.6982
61.500000	99.601	105.0864
62.200001	99.543	104.4414
63.000000	99.467	103.7450
64.000000	99.377	102.9622
65.000000	99.295	102.1577
66.000000	99.208	101.2849
67.000000	99.106	100.4420
68.000000	99.008	99.7151
69.000000	98.931	98.9708
70.000000	98.852	98.1269
71.000000	98.761	97.3185
72.000000	98.673	96.5913
73.000000	98.592	95.8874
74.000000	98.513	95.1835
75.000000	98.434	94.4641
76.199997	98.333	93.6330
77.500000	98.232	92.7739
78.800003	98.134	91.8368
80.000000	98.033	90.9702
81.199997	97.931	90.1750
82.500000	97.830	89.3654
83.800003	97.739	88.5563
85.000000	97.655	87.7814
86.199997	97.566	87.0571
87.500000	97.477	86.2876
88.500000	97.408	85.6712
90.000000	97.299	84.7643
91.199997	97.215	84.0695
92.500000	97.125	83.3371
93.800003	97.032	82.6380
95.000000	96.943	82.0472
96.199997	96.853	81.5242
97.500000	96.772	80.9741
98.800003	96.700	80.2634
100.000000	96.622	79.5240
101.500000	96.518	78.6518
103.000000	96.421	77.8584
104.400002	96.337	77.1878
106.000000	96.247	76.4801
107.500000	96.162	75.8188
109.000000	96.073	75.1761
110.599998	95.978	74.5138
112.000000	95.900	73.9290
113.800003	95.802	73.1664
115.000000	95.737	72.6689
117.199997	95.619	71.7991
118.000000	95.577	71.4982
120.599998	95.441	70.5756
122.000000	95.368	70.1107
124.099998	95.263	69.4294
125.000000	95.218	69.1329
126.500000	95.142	68.6523
128.000000	95.064	68.2130
131.500000	94.896	67.3446
132.000000	94.874	67.2249
134.000000	94.785	66.7814
136.000000	94.706	66.4713
138.000000	94.646	66.2968
140.000000	94.607	66.2199
143.000000	94.609	66.1333
145.000000	94.662	65.8476
147.500000	94.751	65.0307
150.000000	94.812	63.8022
152.500000	94.816	62.3949
155.000000	94.770	61.0068
157.500000	94.700	59.7500
160.000000	94.619	58.6615
162.500000	94.536	57.7228
165.000000	94.455	56.8771
167.500000	94.379	56.0915
170.000000	94.308	55.3683
172.500000	94.243	54.7051
175.000000	94.183	54.0690
177.500000	94.125	53.4440
180.000000	94.070	52.8431
182.500000	94.019	52.2592
185.000000	93.971	51.6766
187.500000	93.926	51.1071
190.000000	93.887	50.5598
192.500000	93.851	50.0380
195.000000	93.818	49.5371
197.500000	93.786	49.0492
200.000000	93.758	48.5679
203.000000	93.729	47.9883
206.000000	93.703	47.4122
209.000000	93.677	46.8497
212.000000	93.654	46.2853
214.000000	93.642	45.8939
218.000000	93.623	45.1036
220.000000	93.614	44.7178
224.000000	93.594	43.9640
227.000000	93.584	43.4031
230.000000	93.577	42.8305
233.000000	93.566	42.2582
236.000000	93.554	41.7000
240.000000	93.540	40.9770
243.000000	93.529	40.4465
247.000000	93.517	39.7560
250.000000	93.512	39.2564
254.000000	93.508	38.5912
258.000000	93.503	37.9213
262.000000	93.500	37.2655
265.000000	93.500	36.7763
269.000000	93.498	36.1460
272.000000	93.498	35.6889
276.000000	93.500	35.0739
280.000000	93.504	34.4618
285.000000	93.512	33.6878
290.000000	93.523	32.8888
295.000000	93.536	32.1202
300.000000	93.549	31.3700
304.000000	93.556	30.7652
307.000000	93.561	30.3150
311.000000	93.569	29.7253
315.000000	93.579	29.1363
320.000000	93.590	28.3957
325.000000	93.602	27.6826
330.000000	93.616	26.9595
335.000000	93.630	26.2321
340.000000	93.644	25.5342
345.000000	93.661	24.8608
350.000000	93.678	24.2227
355.000000	93.695	23.5732
360.000000	93.717	22.9009
365.000000	93.737	22.2111
370.000000	93.757	21.5043
375.000000	93.778	20.7850
382.000000	93.805	19.7762
387.000000	93.825	19.0417
395.000000	93.851	17.8556
400.000000	93.859	17.1366
406.000000	93.869	16.2877
412.000000	93.878	15.4473
418.000000	93.884	14.6362
425.000000	93.890	13.7294
431.000000	93.893	12.9454
437.000000	93.897	12.1650
444.000000	93.901	11.2700
450.000000	93.904	10.5038
455.000000	93.907	9.8832
462.000000	93.909	9.0473
468.000000	93.907	8.3203
475.000000	93.904	7.4851
482.000000	93.897	6.6766
487.000000	93.893	6.0999
494.000000	93.887	5.3135
500.000000	93.881	4.6570
508.000000	93.874	3.7665
515.000000	93.867	2.9811
522.000000	93.857	2.2249
530.000000	93.844	1.4022
538.000000	93.831	0.6151
545.000000	93.817	-0.0540
552.000000	93.802	-0.7191
560.000000	93.782	-1.4822
570.000000	93.755	-2.4315
580.000000	93.732	-3.3204
590.000000	93.710	-4.1602
600.000000	93.684	-5.0115
608.000000	93.660	-5.6822
615.000000	93.639	-6.2399
622.000000	93.619	-6.7679
630.000000	93.596	-7.3483
640.000000	93.564	-8.0631
650.000000	93.531	-8.7706
660.000000	93.500	-9.4550
670.000000	93.470	-10.0852
680.000000	93.442	-10.6733
690.000000	93.414	-11.2656
700.000000	93.389	-11.8502
710.000000	93.366	-12.4039
720.000000	93.340	-12.9227
730.000000	93.314	-13.3958
740.000000	93.286	-13.8383
750.000000	93.259	-14.2715
762.000000	93.231	-14.7687
775.000000	93.210	-15.2850
788.000000	93.193	-15.7772
800.000000	93.179	-16.1915
812.000000	93.170	-16.5863
825.000000	93.160	-16.9783
838.000000	93.153	-17.3370
850.000000	93.150	-17.6611
862.000000	93.151	-17.9559
875.000000	93.158	-18.2578
885.000000	93.168	-18.4922
900.000000	93.190	-18.8359
912.000000	93.214	-19.1138
925.000000	93.245	-19.4148
938.000000	93.280	-19.6973
950.000000	93.315	-19.9619
962.000000	93.353	-20.2421
975.000000	93.395	-20.5530
988.000000	93.443	-20.8729
1000.000000	93.494	-21.1849
1015.000000	93.560	-21.6051
1030.000000	93.631	-22.0653
1044.000000	93.702	-22.5251
1060.000000	93.781	-23.0635
1075.000000	93.854	-23.5840
1090.000000	93.928	-24.1379
1106.000000	94.006	-24.7668
1120.000000	94.075	-25.3473
1138.000000	94.164	-26.1194
1150.000000	94.221	-26.6472
1172.000000	94.324	-27.6542
1180.000000	94.361	-28.0269
1206.000000	94.472	-29.2422
1220.000000	94.528	-29.9091
1241.000000	94.607	-30.9234
1250.000000	94.639	-31.3552
1265.000000	94.691	-32.0651
1280.000000	94.743	-32.7727
1315.000000	94.859	-34.4496
1320.000000	94.876	-34.6855
1340.000000	94.941	-35.6105
1360.000000	95.002	-36.5262
1380.000000	95.062	-37.4365
1400.000000	95.120	-38.3246
1430.000000	95.202	-39.6144
1450.000000	95.260	-40.4614
1475.000000	95.336	-41.5182
1500.000000	95.418	-42.5805
1525.000000	95.501	-43.6394
1550.000000	95.581	-44.6710
1575.000000	95.657	-45.6907
1600.000000	95.734	-46.7252
1625.000000	95.817	-47.7732
1650.000000	95.903	-48.8467
1675.000000	95.990	-49.9271
1700.000000	96.076	-50.9984
1725.000000	96.159	-52.0841
1750.000000	96.241	-53.1729
1775.000000	96.321	-54.2366
1800.000000	96.399	-55.2914
1825.000000	96.479	-56.3433
1850.000000	96.563	-57.3928
1875.000000	96.651	-58.4594
1900.000000	96.743	-59.5474
1925.000000	96.838	-60.6512
1950.000000	96.932	-61.7820
1975.000000	97.025	-62.9394
2000.000000	97.115	-64.1174
2030.000000	97.217	-65.5640
2060.000000	97.313	-67.0389
2090.000000	97.405	-68.5336
2120.000000	97.493	-70.0553
2140.000000	97.549	-71.0801
2180.000000	97.657	-73.1365
2200.000000	97.706	-74.1681
2240.000000	97.791	-76.2056
2270.000000	97.843	-77.6972
2300.000000	97.886	-79.1692
2330.000000	97.921	-80.6049
2360.000000	97.951	-81.9875
2400.000000	97.985	-83.7625
2430.000000	98.008	-85.0244
2470.000000	98.040	-86.5726
2500.000000	98.067	-87.6381
2540.000000	98.116	-88.9422
2580.000000	98.186	-90.1470
2620.000000	98.280	-91.3314
2650.000000	98.365	-92.2487
2690.000000	98.496	-93.5594
2720.000000	98.601	-94.6232
2760.000000	98.746	-96.1233
2800.000000	98.894	-97.6903
2850.000000	99.084	-99.7289
2900.000000	99.287	-101.8719
2950.000000	99.508	-104.2324
3000.000000	99.736	-106.9198
3040.000000	99.913	-109.3904
3070.000000	100.033	-111.4615
3110.000000	100.157	-114.4849
3150.000000	100.220	-117.7208
3200.000000	100.192	-121.8343
3250.000000	100.048	-125.6782
3300.000000	99.818	-128.9741
3350.000000	99.549	-131.5957
3400.000000	99.285	-133.5745
3450.000000	99.050	-135.0956
3500.000000	98.866	-136.2783
3550.000000	98.753	-137.1986
3600.000000	98.705	-138.0126
3650.000000	98.714	-138.9127
3700.000000	98.767	-140.0281
3750.000000	98.848	-141.4577
3820.000000	98.965	-144.0732
3870.000000	99.024	-146.3854
3950.000000	99.017	-150.7185
4000.000000	98.920	-153.6224
4060.000000	98.697	-157.0359
4120.000000	98.359	-160.0378
4180.000000	97.920	-162.2475
4250.000000	97.346	-163.4633
4310.000000	96.888	-163.2451
4370.000000	96.553	-162.0873
4440.000000	96.390	-160.2853
4500.000000	96.430	-159.0975
4550.000000	96.533	-158.6735
4620.000000	96.685	-158.9402
4680.000000	96.768	-159.6746
4750.000000	96.796	-160.6744
4820.000000	96.778	-161.4756
4870.000000	96.762	-161.8157
4940.000000	96.767	-161.9794
5000.000000	96.823	-161.9427
5080.000000	96.996	-161.8589
5150.000000	97.247	-162.0037
5220.000000	97.587	-162.6486
5300.000000	98.049	-164.3430
5380.000000	98.519	-167.3964
5450.000000	98.856	-171.3185
5520.000000	99.043	-176.2369
5600.000000	98.994	177.5527
5700.000000	98.521	170.3801
5800.000000	97.713	165.3750
5900.000000	96.794	163.0495
6000.000000	95.958	163.0002
6080.000000	95.428	164.1003
6150.000000	95.090	165.5518
6220.000000	94.878	167.2184
6300.000000	94.789	169.1072
6400.000000	94.901	170.9489
6500.000000	95.224	171.6014
6600.000000	95.663	170.4065
6700.000000	96.076	166.8024
6800.000000	96.266	160.7090
6900.000000	96.039	152.8660
7000.000000	95.280	144.7639
7100.000000	93.960	138.1013
7200.000000	92.089	134.5668
7300.000000	89.646	137.1411
7400.000000	86.797	151.2968
7500.000000	85.283	178.1718
7620.000000	87.830	-152.0287
7750.000000	91.373	-141.6945
7880.000000	93.805	-145.2958
8000.000000	95.234	-152.3453
8120.000000	96.094	-160.1256
8250.000000	96.530	-168.2553
8380.000000	96.554	-175.3223
8500.000000	96.321	179.6561
8620.000000	95.942	176.2655
8750.000000	95.475	174.3291
8850.000000	95.143	173.9030
9000.000000	94.753	174.5587
9120.000000	94.562	175.8169
9250.000000	94.497	177.5501
9380.000000	94.583	179.3604
9500.000000	94.787	-179.1777
9620.000000	95.097	-178.1780
9750.000000	95.521	-177.8599
9880.000000	95.995	-178.5618
10000.000000	96.424	179.7346
10150.000000	96.863	176.1736
10300.000000	97.099	171.3293
10440.000000	97.073	166.2228
10600.000000	96.727	160.6445
10750.000000	96.140	156.5023
10900.000000	95.382	153.9016
11060.000000	94.483	152.9971
11200.000000	93.700	153.7303
11380.000000	92.813	156.3315
11500.000000	92.327	158.7095
11720.000000	91.611	163.9272
11800.000000	91.402	166.1072
12060.000000	90.953	174.1967
12200.000000	90.891	179.0217
12410.000000	91.083	-173.5298
12500.000000	91.277	-170.3943
12650.000000	91.754	-165.4594
12800.000000	92.424	-161.1559
13150.000000	94.601	-155.6631
13200.000000	94.953	-155.6471
13400.000000	96.312	-158.1437
13600.000000	97.318	-164.7444
13800.000000	97.686	-173.7311
14000.000000	97.384	178.1725
14300.000000	96.234	172.3502
14500.000000	95.488	172.4950
14750.000000	94.932	175.1364
15000.000000	94.875	178.3136
15250.000000	95.211	-179.8264
15500.000000	95.711	179.8306
15750.000000	96.222	177.3987
16000.000000	96.684	172.7202
16250.000000	96.915	165.1199
16500.000000	96.608	155.4987
16750.000000	95.639	146.9568
17000.000000	94.230	141.9590
17250.000000	92.761	140.4135
17500.000000	91.499	140.7741
17750.000000	90.528	141.3165
18000.000000	89.789	140.5284
18250.000000	89.126	136.8903
18500.000000	88.271	128.6570
18750.000000	86.786	113.8248
19000.000000	84.127	87.3622
19250.000000	79.850	32.4069
19500.000000	74.481	-53.8777
19750.000000	71.342	-115.0551
