* Measurement data measured by REW V5.20.13
* Source: Primary Sound Capture Driver, no input selected, R, volume: no control
* Format: 256k Log Swept Sine, 1 sweep at -6.0 dBFS with no timing reference
* Dated: 01/11/2023 1:08:04 PM
* REW Settings:
*  C-weighting compensation: Off
*  Target level: 75.0 dB
* Note: ; 
* Measurement: ThieAudio V16 Divinity R
* Smoothing: 1/24 octave
* Frequency Step: 1/48 octave
* Start Frequency: 20.000 Hz
*
* Freq(Hz)	SPL(dB)	Phase(degrees)
20.000000	100.522	2.7162
20.299999	100.516	2.5579
20.600000	100.524	2.4081
20.900000	100.548	2.2015
21.200001	100.580	1.8821
21.400000	100.599	1.5984
21.799999	100.621	0.9037
22.000000	100.621	0.5281
22.400000	100.596	-0.1815
22.700001	100.564	-0.6108
23.000000	100.529	-0.9233
23.299999	100.503	-1.1451
23.600000	100.489	-1.3232
24.000000	100.489	-1.5747
24.299999	100.496	-1.8173
24.700001	100.505	-2.2165
25.000000	100.506	-2.5439
25.400000	100.499	-2.9690
25.799999	100.488	-3.3459
26.200001	100.477	-3.6759
26.500000	100.471	-3.9073
26.900000	100.466	-4.2124
27.200001	100.463	-4.4442
27.600000	100.459	-4.7561
28.000000	100.455	-5.0661
28.500000	100.448	-5.4492
29.000000	100.442	-5.8358
29.500000	100.434	-6.2336
30.000000	100.422	-6.6359
30.400000	100.410	-6.9482
30.700001	100.400	-7.1708
31.100000	100.388	-7.4520
31.500000	100.377	-7.7260
32.000000	100.368	-8.0833
32.500000	100.357	-8.4692
33.000000	100.340	-8.8557
33.500000	100.320	-9.2000
34.000000	100.303	-9.4933
34.500000	100.296	-9.7776
35.000000	100.295	-10.0982
35.500000	100.292	-10.4626
36.000000	100.284	-10.8408
36.500000	100.272	-11.2067
37.000000	100.257	-11.5551
37.500000	100.242	-11.8910
38.200001	100.217	-12.3375
38.700001	100.198	-12.6373
39.500000	100.168	-13.0921
40.000000	100.149	-13.3612
40.599998	100.130	-13.6753
41.200001	100.115	-14.0095
41.799999	100.099	-14.3774
42.500000	100.075	-14.8123
43.099998	100.055	-15.1674
43.700001	100.035	-15.5237
44.400002	100.008	-15.9214
45.000000	99.986	-16.1993
45.500000	99.974	-16.4031
46.200001	99.965	-16.7190
46.799999	99.951	-16.9991
47.500000	99.937	-17.2436
48.200001	99.943	-17.5101
48.700001	99.950	-17.8310
49.400002	99.929	-18.4104
50.000000	99.881	-18.8184
50.799999	99.819	-19.1312
51.500000	99.785	-19.3843
52.200001	99.755	-19.7236
53.000000	99.715	-20.1389
53.799999	99.675	-20.5381
54.500000	99.643	-20.8784
55.200001	99.613	-21.2045
56.000000	99.584	-21.5679
57.000000	99.548	-22.0109
58.000000	99.514	-22.4333
59.000000	99.479	-22.8569
60.000000	99.440	-23.2785
60.799999	99.406	-23.6110
61.500000	99.375	-23.9026
62.200001	99.344	-24.1960
63.000000	99.309	-24.5316
64.000000	99.266	-24.9491
65.000000	99.222	-25.3568
66.000000	99.179	-25.7482
67.000000	99.136	-26.1275
68.000000	99.092	-26.4948
69.000000	99.046	-26.8475
70.000000	99.001	-27.1965
71.000000	98.956	-27.5535
72.000000	98.912	-27.9099
73.000000	98.868	-28.2635
74.000000	98.825	-28.6187
75.000000	98.779	-28.9675
76.199997	98.723	-29.3690
77.500000	98.660	-29.7938
78.800003	98.596	-30.2153
80.000000	98.537	-30.6033
81.199997	98.479	-30.9844
82.500000	98.420	-31.3820
83.800003	98.364	-31.7878
85.000000	98.309	-32.1563
86.199997	98.250	-32.4973
87.500000	98.184	-32.8516
88.500000	98.132	-33.1199
90.000000	98.055	-33.5170
91.199997	97.994	-33.8324
92.500000	97.929	-34.1601
93.800003	97.866	-34.4746
95.000000	97.806	-34.7551
96.199997	97.745	-35.0031
97.500000	97.683	-35.2473
98.800003	97.625	-35.5458
100.000000	97.564	-35.8566
101.500000	97.483	-36.2233
103.000000	97.401	-36.5601
104.400002	97.328	-36.8517
106.000000	97.246	-37.1550
107.500000	97.173	-37.4216
109.000000	97.102	-37.6929
110.599998	97.025	-37.9863
112.000000	96.956	-38.2335
113.800003	96.866	-38.5436
115.000000	96.804	-38.7508
117.199997	96.689	-39.1131
118.000000	96.648	-39.2433
120.599998	96.513	-39.6470
122.000000	96.440	-39.8399
124.099998	96.332	-40.1141
125.000000	96.285	-40.2296
126.500000	96.206	-40.4135
128.000000	96.128	-40.5819
131.500000	95.946	-40.9213
132.000000	95.920	-40.9659
134.000000	95.816	-41.1436
136.000000	95.710	-41.3207
138.000000	95.604	-41.4882
140.000000	95.497	-41.6252
143.000000	95.339	-41.7831
145.000000	95.232	-41.8629
147.500000	95.103	-41.9210
150.000000	94.975	-41.9656
152.500000	94.841	-41.9847
155.000000	94.704	-41.9697
157.500000	94.568	-41.9131
160.000000	94.432	-41.7831
162.500000	94.297	-41.5569
165.000000	94.167	-41.2277
167.500000	94.047	-40.7738
170.000000	93.947	-40.1868
172.500000	93.878	-39.5340
175.000000	93.844	-38.9302
177.500000	93.842	-38.4997
180.000000	93.855	-38.3414
182.500000	93.859	-38.4353
185.000000	93.839	-38.6625
187.500000	93.794	-38.9128
190.000000	93.727	-39.1260
192.500000	93.646	-39.2853
195.000000	93.558	-39.3853
197.500000	93.469	-39.4127
200.000000	93.380	-39.3833
203.000000	93.273	-39.2911
206.000000	93.167	-39.1440
209.000000	93.066	-38.9414
212.000000	92.973	-38.6915
214.000000	92.915	-38.5074
218.000000	92.805	-38.1227
220.000000	92.752	-37.9333
224.000000	92.649	-37.5306
227.000000	92.579	-37.2001
230.000000	92.512	-36.8597
233.000000	92.448	-36.5438
236.000000	92.393	-36.2255
240.000000	92.330	-35.7747
243.000000	92.280	-35.4498
247.000000	92.217	-35.0144
250.000000	92.175	-34.6691
254.000000	92.123	-34.2001
258.000000	92.077	-33.7378
262.000000	92.031	-33.3105
265.000000	91.996	-33.0240
269.000000	91.960	-32.6591
272.000000	91.940	-32.3918
276.000000	91.913	-32.0193
280.000000	91.891	-31.6058
285.000000	91.869	-31.1133
290.000000	91.850	-30.6570
295.000000	91.836	-30.2442
300.000000	91.822	-29.8696
304.000000	91.815	-29.5781
307.000000	91.812	-29.3651
311.000000	91.810	-29.0931
315.000000	91.810	-28.8335
320.000000	91.813	-28.5254
325.000000	91.818	-28.2457
330.000000	91.824	-27.9951
335.000000	91.831	-27.7635
340.000000	91.839	-27.5515
345.000000	91.849	-27.3531
350.000000	91.859	-27.1713
355.000000	91.871	-27.0135
360.000000	91.883	-26.8749
365.000000	91.896	-26.7537
370.000000	91.912	-26.6469
375.000000	91.928	-26.5494
382.000000	91.955	-26.4375
387.000000	91.976	-26.3878
395.000000	92.006	-26.3645
400.000000	92.023	-26.3811
406.000000	92.043	-26.4273
412.000000	92.061	-26.4839
418.000000	92.077	-26.5457
425.000000	92.095	-26.6406
431.000000	92.109	-26.7450
437.000000	92.121	-26.8608
444.000000	92.132	-27.0065
450.000000	92.140	-27.1307
455.000000	92.145	-27.2305
462.000000	92.150	-27.3797
468.000000	92.153	-27.5225
475.000000	92.154	-27.7006
482.000000	92.154	-27.8840
487.000000	92.153	-28.0085
494.000000	92.149	-28.1761
500.000000	92.145	-28.3217
508.000000	92.139	-28.5210
515.000000	92.131	-28.7008
522.000000	92.123	-28.8852
530.000000	92.112	-29.0825
538.000000	92.099	-29.2606
545.000000	92.086	-29.4066
552.000000	92.070	-29.5475
560.000000	92.052	-29.7159
570.000000	92.031	-29.9389
580.000000	92.008	-30.1501
590.000000	91.983	-30.3302
600.000000	91.957	-30.4854
608.000000	91.933	-30.5950
615.000000	91.912	-30.6783
622.000000	91.891	-30.7546
630.000000	91.867	-30.8375
640.000000	91.838	-30.9290
650.000000	91.811	-30.9974
660.000000	91.786	-31.0519
670.000000	91.764	-31.0876
680.000000	91.743	-31.1107
690.000000	91.725	-31.1199
700.000000	91.707	-31.0980
710.000000	91.690	-31.0494
720.000000	91.674	-30.9813
730.000000	91.661	-30.9011
740.000000	91.652	-30.8201
750.000000	91.648	-30.7369
762.000000	91.650	-30.6333
775.000000	91.660	-30.5038
788.000000	91.675	-30.3627
800.000000	91.693	-30.2424
812.000000	91.713	-30.1251
825.000000	91.737	-29.9971
838.000000	91.763	-29.8629
850.000000	91.789	-29.7308
862.000000	91.818	-29.6045
875.000000	91.857	-29.4812
885.000000	91.891	-29.3916
900.000000	91.948	-29.2706
912.000000	91.999	-29.1782
925.000000	92.057	-29.0806
938.000000	92.118	-28.9972
950.000000	92.179	-28.9366
962.000000	92.243	-28.8917
975.000000	92.317	-28.8677
988.000000	92.395	-28.8688
1000.000000	92.470	-28.8867
1015.000000	92.569	-28.9412
1030.000000	92.674	-29.0506
1044.000000	92.774	-29.1998
1060.000000	92.890	-29.4080
1075.000000	93.002	-29.6412
1090.000000	93.113	-29.9183
1106.000000	93.228	-30.2675
1120.000000	93.325	-30.6040
1138.000000	93.446	-31.0533
1150.000000	93.523	-31.3684
1172.000000	93.661	-31.9936
1180.000000	93.711	-32.2362
1206.000000	93.874	-33.0685
1220.000000	93.962	-33.5376
1241.000000	94.088	-34.2681
1250.000000	94.140	-34.5858
1265.000000	94.223	-35.1117
1280.000000	94.302	-35.6306
1315.000000	94.482	-36.8557
1320.000000	94.508	-37.0366
1340.000000	94.612	-37.7736
1360.000000	94.718	-38.5253
1380.000000	94.824	-39.2831
1400.000000	94.927	-40.0321
1430.000000	95.077	-41.1221
1450.000000	95.175	-41.8497
1475.000000	95.298	-42.7896
1500.000000	95.424	-43.7646
1525.000000	95.555	-44.7883
1550.000000	95.686	-45.8785
1575.000000	95.814	-46.9852
1600.000000	95.948	-48.0321
1625.000000	96.082	-49.2969
1650.000000	96.142	-50.7025
1675.000000	96.201	-51.9019
1700.000000	96.310	-53.1897
1725.000000	96.440	-54.4006
1750.000000	96.518	-55.5106
1775.000000	96.571	-56.6047
1800.000000	96.634	-57.5717
1825.000000	96.731	-58.6998
1850.000000	96.850	-59.8666
1875.000000	96.961	-60.9157
1900.000000	97.050	-61.8964
1925.000000	97.118	-62.8928
1950.000000	97.187	-63.8630
1975.000000	97.258	-64.8322
2000.000000	97.339	-65.8251
2030.000000	97.448	-67.0360
2060.000000	97.561	-68.2560
2090.000000	97.678	-69.4742
2120.000000	97.795	-70.6924
2140.000000	97.872	-71.5238
2180.000000	98.031	-73.2533
2200.000000	98.110	-74.1519
2240.000000	98.269	-75.9998
2270.000000	98.386	-77.4548
2300.000000	98.497	-78.9407
2330.000000	98.601	-80.4237
2360.000000	98.699	-81.9240
2400.000000	98.821	-83.9722
2430.000000	98.908	-85.5056
2470.000000	99.020	-87.5605
2500.000000	99.099	-89.1268
2540.000000	99.197	-91.2194
2580.000000	99.284	-93.3049
2620.000000	99.364	-95.4003
2650.000000	99.421	-96.9901
2690.000000	99.494	-99.1236
2720.000000	99.544	-100.7271
2760.000000	99.607	-102.8888
2800.000000	99.666	-105.0883
2850.000000	99.730	-107.8958
2900.000000	99.777	-110.7986
2950.000000	99.802	-113.8194
3000.000000	99.790	-116.9446
3040.000000	99.747	-119.4902
3070.000000	99.691	-121.3881
3110.000000	99.584	-123.8432
3150.000000	99.443	-126.1436
3200.000000	99.233	-128.6909
3250.000000	99.008	-130.8041
3300.000000	98.793	-132.5040
3350.000000	98.605	-133.8712
3400.000000	98.455	-135.0345
3450.000000	98.348	-136.1261
3500.000000	98.283	-137.2586
3550.000000	98.251	-138.5350
3600.000000	98.243	-140.0323
3650.000000	98.241	-141.7999
3700.000000	98.228	-143.8588
3750.000000	98.184	-146.1854
3820.000000	98.044	-149.7627
3870.000000	97.874	-152.4169
3950.000000	97.472	-156.5148
4000.000000	97.146	-158.8209
4060.000000	96.690	-161.1952
4120.000000	96.179	-163.0438
4180.000000	95.629	-164.3024
4250.000000	94.962	-164.9660
4310.000000	94.390	-164.8129
4370.000000	93.840	-163.9861
4440.000000	93.254	-162.1912
4500.000000	92.827	-160.0194
4550.000000	92.542	-157.8491
4620.000000	92.272	-154.4308
4680.000000	92.168	-151.3378
4750.000000	92.198	-147.7994
4820.000000	92.377	-144.5808
4870.000000	92.581	-142.5927
4940.000000	92.953	-140.3682
5000.000000	93.330	-139.0487
5080.000000	93.881	-138.2032
5150.000000	94.380	-138.3548
5220.000000	94.861	-139.3270
5300.000000	95.353	-141.3760
5380.000000	95.747	-144.2803
5450.000000	95.986	-147.3378
5520.000000	96.116	-150.6838
5600.000000	96.126	-154.6064
5700.000000	95.944	-159.2473
5800.000000	95.576	-163.2013
5900.000000	95.071	-166.1385
6000.000000	94.483	-167.9263
6080.000000	93.984	-168.3595
6150.000000	93.569	-167.9838
6220.000000	93.205	-167.0110
6300.000000	92.884	-165.3341
6400.000000	92.654	-162.9836
6500.000000	92.547	-160.9135
6600.000000	92.491	-159.0209
6700.000000	92.482	-157.1031
6800.000000	92.538	-155.1429
6900.000000	92.668	-153.2007
7000.000000	92.875	-151.3575
7100.000000	93.164	-149.7261
7200.000000	93.534	-148.4348
7300.000000	93.978	-147.6206
7400.000000	94.484	-147.4186
7500.000000	95.035	-147.9652
7620.000000	95.724	-149.8345
7750.000000	96.423	-153.6270
7880.000000	96.948	-159.2401
8000.000000	97.184	-165.5583
8120.000000	97.139	-172.2469
8250.000000	96.772	-178.9800
8380.000000	96.142	175.6670
8500.000000	95.426	172.2866
8620.000000	94.673	170.3445
8750.000000	93.893	169.5709
8850.000000	93.348	169.6921
9000.000000	92.642	170.7003
9120.000000	92.177	171.9890
9250.000000	91.771	173.6802
9380.000000	91.462	175.5270
9500.000000	91.259	177.2441
9620.000000	91.127	178.8600
9750.000000	91.051	-179.6180
9880.000000	91.023	-178.4093
10000.000000	91.020	-177.5761
10150.000000	91.031	-176.8945
10300.000000	91.048	-176.5538
10440.000000	91.061	-176.4783
10600.000000	91.071	-176.6445
10750.000000	91.068	-177.0621
10900.000000	91.038	-177.7415
11060.000000	90.957	-178.6887
11200.000000	90.835	-179.5890
11380.000000	90.606	179.3612
11500.000000	90.413	178.8327
11720.000000	90.011	178.4528
11800.000000	89.863	178.5318
12060.000000	89.433	179.4502
12200.000000	89.254	-179.7918
12410.000000	89.066	-178.5862
12500.000000	89.013	-178.1240
12650.000000	88.953	-177.5174
12800.000000	88.910	-177.1556
13150.000000	88.793	-177.1392
13200.000000	88.768	-177.1941
13400.000000	88.646	-177.4191
13600.000000	88.501	-177.5289
13800.000000	88.363	-177.4702
14000.000000	88.256	-177.3362
14300.000000	88.175	-177.3582
14500.000000	88.154	-177.7645
14750.000000	88.108	-178.7822
15000.000000	88.002	179.9407
15250.000000	87.865	178.7589
15500.000000	87.752	177.6174
15750.000000	87.679	176.2126
16000.000000	87.630	174.3572
16250.000000	87.595	171.8025
16500.000000	87.498	168.2697
16750.000000	87.234	164.0950
17000.000000	86.763	160.1615
17250.000000	86.151	157.2376
17500.000000	85.513	155.4308
17750.000000	84.918	154.5168
18000.000000	84.414	154.3396
18250.000000	84.062	154.6800
18500.000000	83.924	155.0482
18750.000000	84.011	154.7089
19000.000000	84.258	152.9767
19250.000000	84.551	149.6091
19500.000000	84.820	144.9251
19750.000000	85.045	139.8286
