* Measurement data measured by REW V5.20.9
* Source: Microphone (Realtek(R) Audio), MICROPHONE (Master Volume), L, volume: 0.250
* Format: 256k Log Swept Sine, 1 sweep at 0.0 dBFS with no timing reference
* Dated: 20/10/2022 4:13:47 PM
* REW Settings:
*  C-weighting compensation: Off
*  Target level: 75.0 dB
* Note: ; 
* Measurement: Ernie Monarch R
* Smoothing: 1/24 octave
* Frequency Step: 1/48 octave
* Start Frequency: 20.000 Hz
*
* Freq(Hz)	SPL(dB)	Phase(degrees)
20.000000	93.406	15.9099
20.299999	93.443	15.5215
20.600000	93.491	15.0101
20.900000	93.537	14.3580
21.200001	93.571	13.6067
21.400000	93.586	13.0909
21.799999	93.598	12.0782
22.000000	93.599	11.5992
22.400000	93.598	10.6971
22.700001	93.596	10.0492
23.000000	93.592	9.4133
23.299999	93.585	8.7980
23.600000	93.575	8.2171
24.000000	93.560	7.5109
24.299999	93.550	7.0279
24.700001	93.542	6.4220
25.000000	93.538	5.9788
25.400000	93.535	5.3947
25.799999	93.532	4.8208
26.200001	93.532	4.2485
26.500000	93.532	3.8041
26.900000	93.530	3.1750
27.200001	93.523	2.6828
27.600000	93.503	2.0366
28.000000	93.474	1.4570
28.500000	93.442	0.8478
29.000000	93.429	0.2649
29.500000	93.427	-0.4247
30.000000	93.416	-1.2335
30.400000	93.392	-1.8856
30.700001	93.368	-2.3341
31.100000	93.334	-2.8601
31.500000	93.306	-3.3264
32.000000	93.281	-3.8847
32.500000	93.260	-4.4468
33.000000	93.239	-4.9935
33.500000	93.220	-5.5115
34.000000	93.205	-6.0251
34.500000	93.188	-6.5596
35.000000	93.164	-7.0997
35.500000	93.131	-7.6049
36.000000	93.097	-8.0567
36.500000	93.064	-8.4744
37.000000	93.035	-8.8907
37.500000	93.008	-9.3271
38.200001	92.973	-9.9988
38.700001	92.944	-10.5348
39.500000	92.884	-11.4479
40.000000	92.838	-11.9904
40.599998	92.782	-12.5724
41.200001	92.734	-13.1062
41.799999	92.693	-13.6328
42.500000	92.650	-14.2378
43.099998	92.617	-14.7422
43.700001	92.584	-15.2662
44.400002	92.529	-15.8842
45.000000	92.464	-16.3064
45.500000	92.408	-16.5358
46.200001	92.344	-16.7717
46.799999	92.292	-16.9944
47.500000	92.225	-17.1942
48.200001	92.178	-17.2940
48.700001	92.168	-17.4666
49.400002	92.153	-18.0500
50.000000	92.101	-18.7097
50.799999	91.993	-19.3801
51.500000	91.918	-19.7810
52.200001	91.865	-20.2490
53.000000	91.802	-20.8727
53.799999	91.733	-21.4437
54.500000	91.675	-21.8788
55.200001	91.619	-22.2523
56.000000	91.562	-22.6194
57.000000	91.496	-23.0849
58.000000	91.416	-23.5527
59.000000	91.327	-23.9436
60.000000	91.243	-24.3000
60.799999	91.179	-24.6447
61.500000	91.115	-24.9744
62.200001	91.046	-25.2590
63.000000	90.975	-25.5213
64.000000	90.901	-25.8820
65.000000	90.823	-26.2758
66.000000	90.746	-26.6166
67.000000	90.672	-26.9822
68.000000	90.587	-27.3544
69.000000	90.495	-27.6244
70.000000	90.414	-27.8434
71.000000	90.337	-28.0952
72.000000	90.256	-28.3564
73.000000	90.172	-28.5894
74.000000	90.088	-28.7985
75.000000	90.005	-29.0069
76.199997	89.900	-29.2434
77.500000	89.789	-29.4234
78.800003	89.694	-29.5996
80.000000	89.607	-29.8294
81.199997	89.510	-30.0461
82.500000	89.402	-30.2322
83.800003	89.297	-30.4086
85.000000	89.200	-30.5740
86.199997	89.103	-30.7052
87.500000	89.005	-30.7638
88.500000	88.935	-30.7935
90.000000	88.824	-30.8245
91.199997	88.729	-30.8427
92.500000	88.622	-30.8827
93.800003	88.524	-30.9620
95.000000	88.452	-31.0957
96.199997	88.403	-31.2606
97.500000	88.368	-31.4722
98.800003	88.333	-31.7023
100.000000	88.251	-31.8781
101.500000	88.091	-31.4916
103.000000	87.974	-30.9130
104.400002	87.871	-30.6707
106.000000	87.757	-30.5701
107.500000	87.669	-30.5705
109.000000	87.590	-30.5558
110.599998	87.501	-30.3785
112.000000	87.425	-30.1238
113.800003	87.322	-29.8713
115.000000	87.249	-29.7510
117.199997	87.127	-29.6044
118.000000	87.084	-29.5529
120.599998	86.955	-29.2499
122.000000	86.889	-29.0740
124.099998	86.783	-28.8002
125.000000	86.739	-28.6738
126.500000	86.673	-28.4751
128.000000	86.607	-28.2951
131.500000	86.443	-27.8065
132.000000	86.419	-27.7357
134.000000	86.328	-27.4471
136.000000	86.246	-27.1371
138.000000	86.167	-26.8319
140.000000	86.086	-26.5151
143.000000	85.981	-26.0243
145.000000	85.927	-25.6951
147.500000	85.850	-25.3127
150.000000	85.750	-24.7721
152.500000	85.659	-24.2638
155.000000	85.561	-23.7867
157.500000	85.476	-23.1904
160.000000	85.410	-22.5969
162.500000	85.351	-22.0444
165.000000	85.300	-21.4475
167.500000	85.266	-20.7717
170.000000	85.255	-20.1525
172.500000	85.251	-19.7097
175.000000	85.235	-19.4109
177.500000	85.198	-19.1150
180.000000	85.159	-18.7184
182.500000	85.137	-18.3147
185.000000	85.118	-18.0071
187.500000	85.090	-17.7452
190.000000	85.060	-17.4594
192.500000	85.036	-17.1544
195.000000	85.013	-16.8420
197.500000	84.988	-16.5392
200.000000	84.960	-16.2372
203.000000	84.928	-15.8363
206.000000	84.896	-15.4126
209.000000	84.866	-15.0122
212.000000	84.839	-14.6382
214.000000	84.823	-14.3921
218.000000	84.791	-13.8915
220.000000	84.776	-13.6306
224.000000	84.751	-13.0897
227.000000	84.734	-12.6823
230.000000	84.718	-12.2946
233.000000	84.704	-11.9489
236.000000	84.693	-11.6329
240.000000	84.678	-11.2144
243.000000	84.668	-10.8929
247.000000	84.657	-10.4578
250.000000	84.649	-10.1353
254.000000	84.640	-9.7101
258.000000	84.634	-9.3035
262.000000	84.625	-8.9199
265.000000	84.619	-8.6267
269.000000	84.613	-8.2281
272.000000	84.607	-7.9450
276.000000	84.600	-7.5806
280.000000	84.597	-7.2054
285.000000	84.596	-6.7166
290.000000	84.598	-6.2114
295.000000	84.603	-5.6954
300.000000	84.615	-5.2260
304.000000	84.633	-4.8723
307.000000	84.651	-4.6429
311.000000	84.674	-4.3954
315.000000	84.694	-4.1985
320.000000	84.713	-4.0025
325.000000	84.722	-3.8050
330.000000	84.727	-3.6178
335.000000	84.730	-3.3900
340.000000	84.737	-3.1412
345.000000	84.740	-2.9125
350.000000	84.736	-2.6989
355.000000	84.733	-2.4858
360.000000	84.732	-2.2453
365.000000	84.734	-2.0018
370.000000	84.738	-1.7872
375.000000	84.740	-1.5784
382.000000	84.740	-1.2667
387.000000	84.740	-1.0462
395.000000	84.741	-0.7139
400.000000	84.742	-0.5027
406.000000	84.742	-0.2488
412.000000	84.742	-0.0060
418.000000	84.741	0.2336
425.000000	84.741	0.5054
431.000000	84.742	0.7263
437.000000	84.742	0.9482
444.000000	84.741	1.2097
450.000000	84.740	1.4332
455.000000	84.738	1.6218
462.000000	84.734	1.8956
468.000000	84.731	2.1334
475.000000	84.730	2.3997
482.000000	84.726	2.6565
487.000000	84.724	2.8378
494.000000	84.721	3.0897
500.000000	84.721	3.3052
508.000000	84.718	3.6052
515.000000	84.714	3.8829
522.000000	84.709	4.1597
530.000000	84.703	4.4667
538.000000	84.696	4.7698
545.000000	84.691	5.0270
552.000000	84.686	5.2900
560.000000	84.679	5.5988
570.000000	84.671	6.0012
580.000000	84.663	6.4127
590.000000	84.653	6.8249
600.000000	84.646	7.2440
608.000000	84.641	7.5964
615.000000	84.637	7.9083
622.000000	84.632	8.2246
630.000000	84.626	8.5917
640.000000	84.618	9.0625
650.000000	84.613	9.5405
660.000000	84.608	10.0210
670.000000	84.604	10.5151
680.000000	84.604	11.0322
690.000000	84.605	11.5588
700.000000	84.606	12.0884
710.000000	84.608	12.6378
720.000000	84.610	13.2010
730.000000	84.615	13.7795
740.000000	84.623	14.3768
750.000000	84.633	14.9811
762.000000	84.651	15.7209
775.000000	84.677	16.5414
788.000000	84.708	17.3782
800.000000	84.743	18.1705
812.000000	84.786	18.9919
825.000000	84.843	19.8890
838.000000	84.912	20.7722
850.000000	84.989	21.5611
862.000000	85.080	22.3195
875.000000	85.193	23.0805
885.000000	85.287	23.5728
900.000000	85.432	24.1187
912.000000	85.543	24.4270
925.000000	85.647	24.6829
938.000000	85.733	24.8902
950.000000	85.801	25.0885
962.000000	85.859	25.3245
975.000000	85.919	25.6296
988.000000	85.979	25.9838
1000.000000	86.037	26.3417
1015.000000	86.116	26.8063
1030.000000	86.202	27.2766
1044.000000	86.288	27.7092
1060.000000	86.392	28.1801
1075.000000	86.491	28.5867
1090.000000	86.593	28.9502
1106.000000	86.705	29.2933
1120.000000	86.803	29.5593
1138.000000	86.930	29.8521
1150.000000	87.012	30.0206
1172.000000	87.161	30.2759
1180.000000	87.214	30.3516
1206.000000	87.380	30.5599
1220.000000	87.466	30.6509
1241.000000	87.589	30.7512
1250.000000	87.640	30.7872
1265.000000	87.721	30.8465
1280.000000	87.801	30.9052
1315.000000	87.977	30.9958
1320.000000	88.002	31.0051
1340.000000	88.097	31.0510
1360.000000	88.190	31.1207
1380.000000	88.278	31.1883
1400.000000	88.362	31.2437
1430.000000	88.485	31.3670
1450.000000	88.565	31.4654
1475.000000	88.666	31.5739
1500.000000	88.769	31.6942
1525.000000	88.870	31.8351
1550.000000	88.971	31.9936
1575.000000	89.076	32.1398
1600.000000	89.180	32.2849
1625.000000	89.284	32.4579
1650.000000	89.387	32.6312
1675.000000	89.495	32.7779
1700.000000	89.607	32.9240
1725.000000	89.722	33.0649
1750.000000	89.838	33.1897
1775.000000	89.958	33.3035
1800.000000	90.079	33.4013
1825.000000	90.201	33.4845
1850.000000	90.325	33.5497
1875.000000	90.451	33.5917
1900.000000	90.580	33.6053
1925.000000	90.711	33.5977
1950.000000	90.843	33.5706
1975.000000	90.975	33.5107
2000.000000	91.104	33.4393
2030.000000	91.257	33.3617
2060.000000	91.410	33.2767
2090.000000	91.569	33.1992
2120.000000	91.742	33.1585
2140.000000	91.870	33.1260
2180.000000	92.162	32.9184
2200.000000	92.322	32.6764
2240.000000	92.639	31.7989
2270.000000	92.853	30.8355
2300.000000	93.038	29.7220
2330.000000	93.195	28.5412
2360.000000	93.330	27.3361
2400.000000	93.481	25.7170
2430.000000	93.572	24.5130
2470.000000	93.668	22.9297
2500.000000	93.722	21.7572
2540.000000	93.773	20.2406
2580.000000	93.804	18.8030
2620.000000	93.819	17.4499
2650.000000	93.821	16.4906
2690.000000	93.812	15.3151
2720.000000	93.799	14.5101
2760.000000	93.779	13.5151
2800.000000	93.760	12.6121
2850.000000	93.740	11.5848
2900.000000	93.729	10.6379
2950.000000	93.731	9.7345
3000.000000	93.745	8.7948
3040.000000	93.758	8.0396
3070.000000	93.768	7.4473
3110.000000	93.784	6.5919
3150.000000	93.803	5.6624
3200.000000	93.822	4.3611
3250.000000	93.822	2.8913
3300.000000	93.787	1.2717
3350.000000	93.696	-0.3914
3400.000000	93.541	-1.8568
3450.000000	93.345	-2.8376
3500.000000	93.163	-3.2319
3550.000000	93.051	-3.2640
3600.000000	93.022	-3.3042
3650.000000	93.053	-3.6189
3700.000000	93.113	-4.3118
3750.000000	93.178	-5.4092
3820.000000	93.244	-7.6797
3870.000000	93.242	-9.8082
3950.000000	93.089	-13.8962
4000.000000	92.867	-16.6475
4060.000000	92.449	-19.7723
4120.000000	91.867	-22.2653
4180.000000	91.153	-23.6445
4250.000000	90.238	-23.3807
4310.000000	89.490	-21.4556
4370.000000	88.877	-18.2076
4440.000000	88.431	-13.4360
4500.000000	88.303	-9.1935
4550.000000	88.357	-5.9458
4620.000000	88.618	-2.2593
4680.000000	88.952	-0.1019
4750.000000	89.393	1.1832
4820.000000	89.820	1.2479
4870.000000	90.086	0.6632
4940.000000	90.380	-0.8494
5000.000000	90.547	-2.5928
5080.000000	90.643	-5.2437
5150.000000	90.613	-7.6172
5220.000000	90.492	-9.8517
5300.000000	90.267	-12.0888
5380.000000	89.973	-13.9040
5450.000000	89.677	-15.1329
5520.000000	89.358	-16.0318
5600.000000	88.977	-16.6602
5700.000000	88.493	-16.8875
5800.000000	88.022	-16.5406
5900.000000	87.584	-15.6830
6000.000000	87.190	-14.4086
6080.000000	86.912	-13.1408
6150.000000	86.698	-11.8972
6220.000000	86.515	-10.5652
6300.000000	86.344	-8.9628
6400.000000	86.186	-6.8890
6500.000000	86.088	-4.7850
6600.000000	86.048	-2.6968
6700.000000	86.066	-0.6656
6800.000000	86.146	1.2548
6900.000000	86.288	2.9994
7000.000000	86.492	4.4746
7100.000000	86.755	5.5417
7200.000000	87.057	6.1241
7300.000000	87.380	6.1844
7400.000000	87.711	5.7174
7500.000000	88.044	4.7245
7620.000000	88.435	2.6135
7750.000000	88.733	-1.1367
7880.000000	88.772	-5.6150
8000.000000	88.586	-9.4841
8120.000000	88.240	-12.5861
8250.000000	87.758	-14.7922
8380.000000	87.251	-15.7805
8500.000000	86.815	-15.7818
8620.000000	86.439	-15.1052
8750.000000	86.116	-13.7878
8850.000000	85.939	-12.4504
9000.000000	85.811	-10.1019
9120.000000	85.842	-8.1403
9250.000000	86.019	-6.2009
9380.000000	86.345	-4.7524
9500.000000	86.763	-4.1500
9620.000000	87.263	-4.5843
9750.000000	87.820	-6.6035
9880.000000	88.278	-10.3304
10000.000000	88.524	-15.0006
10150.000000	88.516	-21.6668
10300.000000	88.151	-28.1178
10440.000000	87.547	-33.1315
10600.000000	86.644	-37.2001
10750.000000	85.679	-39.2760
10900.000000	84.673	-39.6732
11060.000000	83.631	-38.3389
11200.000000	82.809	-35.8643
11380.000000	81.960	-31.3701
11500.000000	81.555	-27.9244
11720.000000	81.153	-21.6519
11800.000000	81.101	-19.6050
12060.000000	81.143	-14.5594
12200.000000	81.206	-13.0543
12410.000000	81.204	-12.3051
12500.000000	81.133	-12.3279
12650.000000	80.904	-12.4048
12800.000000	80.556	-12.1045
13150.000000	79.589	-8.8151
13200.000000	79.463	-8.1096
13400.000000	79.038	-5.1281
13600.000000	78.721	-2.4295
13800.000000	78.441	-0.5728
14000.000000	78.085	0.2596
14300.000000	77.172	0.5406
14500.000000	76.237	1.3928
14750.000000	74.770	4.7422
15000.000000	73.161	11.2950
15250.000000	71.611	20.8994
15500.000000	70.266	33.1495
15750.000000	69.259	47.6754
16000.000000	68.773	63.9460
16250.000000	69.018	80.5031
16500.000000	69.941	94.6964
16750.000000	71.138	104.9258
17000.000000	72.355	111.9386
17250.000000	73.612	116.5775
17500.000000	74.924	118.3633
17750.000000	76.174	116.2909
18000.000000	77.177	109.5005
18250.000000	77.663	97.2585
18500.000000	77.223	80.3912
18750.000000	75.509	63.9709
19000.000000	72.552	54.4888
19250.000000	68.787	53.7850
19500.000000	64.762	59.4161
19750.000000	60.922	67.6339
