* Measurement data measured by REW V5.20.13
* Source: Primary Sound Capture Driver, no input selected, R, volume: no control
* Format: 256k Log Swept Sine, 1 sweep at -6.0 dBFS with no timing reference
* Dated: 01/11/2023 1:01:04 PM
* REW Settings:
*  C-weighting compensation: Off
*  Target level: 75.0 dB
* Note: ; 
* Measurement: ThieAudio Monarch MKIII L
* Smoothing: 1/24 octave
* Frequency Step: 1/48 octave
* Start Frequency: 20.000 Hz
*
* Freq(Hz)	SPL(dB)	Phase(degrees)
20.000000	100.318	9.2305
20.299999	100.321	8.7017
20.600000	100.319	8.1772
20.900000	100.313	7.6738
21.200001	100.304	7.2086
21.400000	100.297	6.9235
21.799999	100.288	6.4019
22.000000	100.286	6.1552
22.400000	100.288	5.6592
22.700001	100.294	5.2638
23.000000	100.300	4.8386
23.299999	100.302	4.3912
23.600000	100.300	3.9365
24.000000	100.290	3.3457
24.299999	100.279	2.9307
24.700001	100.264	2.4200
25.000000	100.255	2.0612
25.400000	100.247	1.5961
25.799999	100.242	1.1242
26.200001	100.238	0.6328
26.500000	100.234	0.2532
26.900000	100.225	-0.2563
27.200001	100.215	-0.6285
27.600000	100.199	-1.0953
28.000000	100.183	-1.5211
28.500000	100.169	-2.0126
29.000000	100.162	-2.5093
29.500000	100.157	-3.0510
30.000000	100.146	-3.6255
30.400000	100.129	-4.0720
30.700001	100.114	-4.3829
31.100000	100.094	-4.7618
31.500000	100.076	-5.1146
32.000000	100.059	-5.5536
32.500000	100.041	-6.0103
33.000000	100.021	-6.4728
33.500000	99.997	-6.9196
34.000000	99.974	-7.3464
34.500000	99.951	-7.7656
35.000000	99.930	-8.1865
35.500000	99.908	-8.6098
36.000000	99.885	-9.0312
36.500000	99.863	-9.4476
37.000000	99.841	-9.8588
37.500000	99.820	-10.2655
38.200001	99.790	-10.8269
38.700001	99.770	-11.2188
39.500000	99.737	-11.8328
40.000000	99.717	-12.2120
40.599998	99.689	-12.6517
41.200001	99.659	-13.0607
41.799999	99.629	-13.4514
42.500000	99.591	-13.9019
43.099998	99.555	-14.2584
43.700001	99.521	-14.5893
44.400002	99.485	-15.0118
45.000000	99.450	-15.4086
45.500000	99.420	-15.7258
46.200001	99.389	-16.2249
46.799999	99.358	-16.8394
47.500000	99.270	-17.5938
48.200001	99.152	-17.8989
48.700001	99.103	-17.8414
49.400002	99.111	-17.8749
50.000000	99.132	-18.2676
50.799999	99.113	-18.9507
51.500000	99.079	-19.3695
52.200001	99.057	-19.7371
53.000000	99.026	-20.1991
53.799999	98.983	-20.5956
54.500000	98.947	-20.9032
55.200001	98.908	-21.2191
56.000000	98.858	-21.5659
57.000000	98.794	-21.9741
58.000000	98.731	-22.4000
59.000000	98.667	-22.8336
60.000000	98.607	-23.2555
60.799999	98.559	-23.6147
61.500000	98.514	-23.9279
62.200001	98.468	-24.2062
63.000000	98.420	-24.5059
64.000000	98.362	-24.9124
65.000000	98.301	-25.3313
66.000000	98.237	-25.7566
67.000000	98.168	-26.1610
68.000000	98.102	-26.5081
69.000000	98.041	-26.8360
70.000000	97.983	-27.1614
71.000000	97.924	-27.4735
72.000000	97.864	-27.7708
73.000000	97.803	-28.0606
74.000000	97.741	-28.3502
75.000000	97.676	-28.6377
76.199997	97.596	-28.9716
77.500000	97.508	-29.3176
78.800003	97.422	-29.6472
80.000000	97.343	-29.9440
81.199997	97.264	-30.2312
82.500000	97.179	-30.5212
83.800003	97.097	-30.8007
85.000000	97.021	-31.0529
86.199997	96.946	-31.3024
87.500000	96.862	-31.5696
88.500000	96.794	-31.7577
90.000000	96.694	-32.0016
91.199997	96.617	-32.1833
92.500000	96.535	-32.3733
93.800003	96.454	-32.5624
95.000000	96.376	-32.7244
96.199997	96.295	-32.8259
97.500000	96.215	-32.9113
98.800003	96.135	-33.0502
100.000000	96.053	-33.2225
101.500000	95.936	-33.4194
103.000000	95.816	-33.5340
104.400002	95.711	-33.6134
106.000000	95.595	-33.7063
107.500000	95.484	-33.7736
109.000000	95.369	-33.7981
110.599998	95.240	-33.7392
112.000000	95.124	-33.6156
113.800003	94.968	-33.3391
115.000000	94.864	-33.0623
117.199997	94.683	-32.3423
118.000000	94.624	-31.9951
120.599998	94.496	-30.5393
122.000000	94.488	-29.6691
124.099998	94.558	-28.6069
125.000000	94.607	-28.3310
126.500000	94.694	-28.1678
128.000000	94.764	-28.3259
131.500000	94.807	-29.2769
132.000000	94.800	-29.4243
134.000000	94.753	-29.9614
136.000000	94.682	-30.3914
138.000000	94.597	-30.7021
140.000000	94.509	-30.9073
143.000000	94.377	-31.0744
145.000000	94.291	-31.1141
147.500000	94.185	-31.1107
150.000000	94.080	-31.0576
152.500000	93.979	-30.9818
155.000000	93.880	-30.8636
157.500000	93.788	-30.7047
160.000000	93.702	-30.5251
162.500000	93.621	-30.3287
165.000000	93.545	-30.1302
167.500000	93.472	-29.9219
170.000000	93.401	-29.7095
172.500000	93.333	-29.5151
175.000000	93.267	-29.3303
177.500000	93.203	-29.1433
180.000000	93.139	-28.9626
182.500000	93.077	-28.7759
185.000000	93.016	-28.5732
187.500000	92.957	-28.3644
190.000000	92.898	-28.1548
192.500000	92.840	-27.9456
195.000000	92.782	-27.7327
197.500000	92.724	-27.5173
200.000000	92.665	-27.2994
203.000000	92.595	-27.0297
206.000000	92.525	-26.7473
209.000000	92.455	-26.4446
212.000000	92.385	-26.1046
214.000000	92.338	-25.8520
218.000000	92.245	-25.2810
220.000000	92.199	-24.9536
224.000000	92.115	-24.1594
227.000000	92.065	-23.4320
230.000000	92.041	-22.6225
233.000000	92.057	-21.8057
236.000000	92.113	-21.1221
240.000000	92.219	-20.6232
243.000000	92.293	-20.5811
247.000000	92.346	-20.8062
250.000000	92.352	-21.0360
254.000000	92.335	-21.2756
258.000000	92.297	-21.4027
262.000000	92.251	-21.4355
265.000000	92.217	-21.4039
269.000000	92.171	-21.3220
272.000000	92.138	-21.2543
276.000000	92.096	-21.1405
280.000000	92.057	-20.9952
285.000000	92.010	-20.7949
290.000000	91.963	-20.5740
295.000000	91.921	-20.3434
300.000000	91.882	-20.1091
304.000000	91.851	-19.9268
307.000000	91.829	-19.7954
311.000000	91.802	-19.6269
315.000000	91.775	-19.4597
320.000000	91.743	-19.2383
325.000000	91.714	-19.0027
330.000000	91.684	-18.7806
335.000000	91.652	-18.5792
340.000000	91.622	-18.3815
345.000000	91.594	-18.1814
350.000000	91.567	-17.9830
355.000000	91.541	-17.7899
360.000000	91.516	-17.5894
365.000000	91.491	-17.3893
370.000000	91.467	-17.2019
375.000000	91.443	-17.0161
382.000000	91.409	-16.7585
387.000000	91.386	-16.5746
395.000000	91.349	-16.2711
400.000000	91.327	-16.0840
406.000000	91.301	-15.8678
412.000000	91.276	-15.6549
418.000000	91.252	-15.4432
425.000000	91.224	-15.1998
431.000000	91.200	-14.9896
437.000000	91.177	-14.7733
444.000000	91.151	-14.5256
450.000000	91.128	-14.3107
455.000000	91.109	-14.1283
462.000000	91.082	-13.8799
468.000000	91.059	-13.6771
475.000000	91.033	-13.4376
482.000000	91.006	-13.1917
487.000000	90.985	-12.9955
494.000000	90.961	-12.6700
500.000000	90.948	-12.3933
508.000000	90.938	-12.0988
515.000000	90.927	-11.9045
522.000000	90.907	-11.7224
530.000000	90.880	-11.4662
538.000000	90.854	-11.1818
545.000000	90.832	-10.9280
552.000000	90.812	-10.6672
560.000000	90.789	-10.3641
570.000000	90.765	-9.9910
580.000000	90.739	-9.6121
590.000000	90.716	-9.2261
600.000000	90.694	-8.8362
608.000000	90.678	-8.5196
615.000000	90.665	-8.2397
622.000000	90.652	-7.9598
630.000000	90.636	-7.6432
640.000000	90.620	-7.2391
650.000000	90.606	-6.8239
660.000000	90.591	-6.4050
670.000000	90.579	-5.9813
680.000000	90.568	-5.5574
690.000000	90.559	-5.1283
700.000000	90.550	-4.6847
710.000000	90.543	-4.2372
720.000000	90.537	-3.7881
730.000000	90.534	-3.3273
740.000000	90.533	-2.8632
750.000000	90.532	-2.3953
762.000000	90.536	-1.8153
775.000000	90.543	-1.1763
788.000000	90.554	-0.5354
800.000000	90.568	0.0567
812.000000	90.586	0.6578
825.000000	90.609	1.3303
838.000000	90.637	2.0029
850.000000	90.667	2.6167
862.000000	90.702	3.2345
875.000000	90.746	3.8995
885.000000	90.783	4.4077
900.000000	90.845	5.1646
912.000000	90.901	5.7551
925.000000	90.966	6.3855
938.000000	91.037	6.9996
950.000000	91.107	7.5375
962.000000	91.181	8.0564
975.000000	91.265	8.6016
988.000000	91.354	9.1183
1000.000000	91.440	9.5645
1015.000000	91.550	10.0770
1030.000000	91.664	10.5368
1044.000000	91.774	10.9261
1060.000000	91.901	11.3248
1075.000000	92.022	11.6453
1090.000000	92.142	11.9170
1106.000000	92.269	12.1584
1120.000000	92.381	12.3287
1138.000000	92.522	12.4960
1150.000000	92.613	12.5791
1172.000000	92.777	12.6790
1180.000000	92.835	12.6992
1206.000000	93.017	12.7194
1220.000000	93.112	12.7039
1241.000000	93.248	12.6511
1250.000000	93.304	12.6205
1265.000000	93.397	12.5618
1280.000000	93.486	12.4951
1315.000000	93.682	12.3210
1320.000000	93.709	12.2953
1340.000000	93.815	12.1895
1360.000000	93.916	12.0820
1380.000000	94.016	11.9781
1400.000000	94.114	11.8743
1430.000000	94.259	11.7185
1450.000000	94.354	11.6180
1475.000000	94.469	11.4933
1500.000000	94.584	11.3760
1525.000000	94.697	11.2555
1550.000000	94.809	11.1386
1575.000000	94.923	11.0200
1600.000000	95.037	10.8892
1625.000000	95.152	10.7537
1650.000000	95.268	10.6035
1675.000000	95.384	10.4397
1700.000000	95.499	10.2695
1725.000000	95.613	10.0803
1750.000000	95.726	9.8782
1775.000000	95.839	9.6633
1800.000000	95.951	9.4247
1825.000000	96.063	9.1718
1850.000000	96.175	8.9026
1875.000000	96.284	8.6089
1900.000000	96.392	8.2997
1925.000000	96.498	7.9794
1950.000000	96.600	7.6416
1975.000000	96.701	7.2925
2000.000000	96.799	6.9354
2030.000000	96.913	6.4910
2060.000000	97.023	6.0388
2090.000000	97.130	5.5821
2120.000000	97.235	5.1108
2140.000000	97.304	4.7913
2180.000000	97.442	4.1308
2200.000000	97.510	3.7756
2240.000000	97.641	3.0098
2270.000000	97.732	2.3912
2300.000000	97.815	1.7332
2330.000000	97.889	1.0510
2360.000000	97.953	0.3548
2400.000000	98.023	-0.5988
2430.000000	98.063	-1.3140
2470.000000	98.098	-2.2400
2500.000000	98.113	-2.9078
2540.000000	98.119	-3.7404
2580.000000	98.113	-4.5015
2620.000000	98.095	-5.1970
2650.000000	98.075	-5.6677
2690.000000	98.042	-6.2332
2720.000000	98.013	-6.6152
2760.000000	97.969	-7.0599
2800.000000	97.919	-7.4379
2850.000000	97.850	-7.8212
2900.000000	97.772	-8.0856
2950.000000	97.687	-8.2358
3000.000000	97.598	-8.2499
3040.000000	97.525	-8.1576
3070.000000	97.471	-8.0322
3110.000000	97.403	-7.7839
3150.000000	97.338	-7.4432
3200.000000	97.268	-6.9110
3250.000000	97.211	-6.2686
3300.000000	97.168	-5.5320
3350.000000	97.143	-4.7325
3400.000000	97.135	-3.8859
3450.000000	97.148	-3.0219
3500.000000	97.179	-2.1686
3550.000000	97.228	-1.3398
3600.000000	97.291	-0.5627
3650.000000	97.367	0.1483
3700.000000	97.450	0.7924
3750.000000	97.540	1.3577
3820.000000	97.673	2.0206
3870.000000	97.769	2.4143
3950.000000	97.925	2.8950
4000.000000	98.024	3.1040
4060.000000	98.142	3.2561
4120.000000	98.259	3.2885
4180.000000	98.370	3.1976
4250.000000	98.488	2.9086
4310.000000	98.571	2.4901
4370.000000	98.629	1.9247
4440.000000	98.653	1.1141
4500.000000	98.626	0.3663
4550.000000	98.566	-0.2139
4620.000000	98.427	-0.8230
4680.000000	98.267	-1.0262
4750.000000	98.061	-0.7721
4820.000000	97.869	0.0134
4870.000000	97.761	0.8352
4940.000000	97.667	2.1910
5000.000000	97.643	3.3818
5080.000000	97.680	4.7861
5150.000000	97.755	5.7223
5220.000000	97.848	6.3329
5300.000000	97.954	6.6392
5380.000000	98.040	6.5837
5450.000000	98.089	6.2969
5520.000000	98.105	5.8532
5600.000000	98.076	5.2377
5700.000000	97.969	4.4404
5800.000000	97.784	3.7919
5900.000000	97.535	3.4600
6000.000000	97.242	3.5746
6080.000000	96.995	4.0381
6150.000000	96.786	4.6920
6220.000000	96.594	5.5111
6300.000000	96.396	6.5432
6400.000000	96.163	7.8872
6500.000000	95.923	9.3978
6600.000000	95.687	11.2430
6700.000000	95.481	13.4465
6800.000000	95.329	15.9369
6900.000000	95.241	18.6132
7000.000000	95.230	21.3607
7100.000000	95.301	24.0408
7200.000000	95.450	26.4774
7300.000000	95.664	28.5436
7400.000000	95.932	30.1762
7500.000000	96.244	31.2112
7620.000000	96.626	31.3831
7750.000000	96.926	30.3647
7880.000000	97.078	28.9360
8000.000000	97.149	27.2066
8120.000000	97.085	24.8939
8250.000000	96.804	22.4173
8380.000000	96.329	20.6283
8500.000000	95.767	19.8500
8620.000000	95.130	20.0076
8750.000000	94.395	21.2702
8850.000000	93.823	22.9980
9000.000000	92.996	26.7281
9120.000000	92.392	30.5737
9250.000000	91.817	35.4191
9380.000000	91.338	40.7368
9500.000000	90.967	45.9088
9620.000000	90.654	51.3680
9750.000000	90.402	57.6100
9880.000000	90.258	63.9984
10000.000000	90.211	69.8468
10150.000000	90.252	76.9478
10300.000000	90.388	83.6972
10440.000000	90.580	89.5570
10600.000000	90.851	95.5777
10750.000000	91.113	100.4599
10900.000000	91.333	104.5916
11060.000000	91.469	108.3036
11200.000000	91.467	111.2264
11380.000000	91.267	115.0974
11500.000000	91.018	118.0921
11720.000000	90.383	125.1398
11800.000000	90.121	128.3130
12060.000000	89.307	140.9346
12200.000000	88.965	149.0066
12410.000000	88.670	162.2850
12500.000000	88.639	168.2486
12650.000000	88.722	178.3325
12800.000000	88.976	-171.6286
13150.000000	90.187	-149.8381
13200.000000	90.419	-147.0567
13400.000000	91.441	-137.1497
13600.000000	92.505	-129.5217
13800.000000	93.452	-124.2565
14000.000000	94.135	-120.8817
14300.000000	94.523	-116.8826
14500.000000	94.437	-113.1997
14750.000000	94.165	-106.5774
15000.000000	93.921	-98.0923
15250.000000	93.824	-88.7075
15500.000000	93.882	-79.3905
15750.000000	94.024	-70.8728
16000.000000	94.134	-63.4799
16250.000000	94.089	-56.9500
16500.000000	93.828	-50.5105
16750.000000	93.381	-43.3209
17000.000000	92.849	-34.9998
17250.000000	92.331	-25.7841
17500.000000	91.866	-16.2122
17750.000000	91.415	-6.6535
18000.000000	90.922	2.9512
18250.000000	90.362	13.0265
18500.000000	89.787	23.9842
18750.000000	89.307	35.7012
19000.000000	89.001	47.4181
19250.000000	88.837	58.2895
19500.000000	88.734	67.7254
19750.000000	88.631	74.9791
