* Measurement data measured by REW V5.20.13
* Source: Primary Sound Capture Driver, no input selected, R, volume: no control
* Format: 256k Log Swept Sine, 1 sweep at 0.0 dBFS with no timing reference
* Dated: 09/11/2023 12:19:58 PM
* REW Settings:
*  C-weighting compensation: Off
*  Target level: 75.0 dB
* Note: ; 
* Measurement: Ultimate Ears UE6 R
* Smoothing: 1/24 octave
* Frequency Step: 1/48 octave
* Start Frequency: 20.000 Hz
*
* Freq(Hz)	SPL(dB)	Phase(degrees)
20.000000	109.539	168.5834
20.299999	109.509	168.0737
20.600000	109.480	167.5609
20.900000	109.451	167.0439
21.200001	109.420	166.5281
21.400000	109.398	166.1915
21.799999	109.351	165.5482
22.000000	109.327	165.2463
22.400000	109.281	164.6837
22.700001	109.249	164.2877
23.000000	109.221	163.8981
23.299999	109.194	163.5016
23.600000	109.166	163.0939
24.000000	109.125	162.5385
24.299999	109.090	162.1279
24.700001	109.038	161.6099
25.000000	108.997	161.2507
25.400000	108.944	160.8052
25.799999	108.893	160.3759
26.200001	108.845	159.9414
26.500000	108.809	159.6079
26.900000	108.759	159.1590
27.200001	108.720	158.8268
27.600000	108.667	158.3982
28.000000	108.615	157.9883
28.500000	108.550	157.4985
29.000000	108.489	157.0286
29.500000	108.430	156.5761
30.000000	108.375	156.1312
30.400000	108.333	155.7686
30.700001	108.301	155.4876
31.100000	108.257	155.1005
31.500000	108.208	154.7073
32.000000	108.139	154.2313
32.500000	108.064	153.8009
33.000000	107.988	153.4250
33.500000	107.916	153.0814
34.000000	107.849	152.7372
34.500000	107.784	152.3858
35.000000	107.720	152.0472
35.500000	107.666	151.7192
36.000000	107.622	151.3415
36.500000	107.581	150.8504
37.000000	107.522	150.2778
37.500000	107.437	149.7666
38.200001	107.299	149.4112
38.700001	107.218	149.4102
39.500000	107.147	149.5170
40.000000	107.129	149.5048
40.599998	107.117	149.3243
41.200001	107.095	148.9354
41.799999	107.043	148.4396
42.500000	106.953	147.9151
43.099998	106.873	147.5021
43.700001	106.790	147.0518
44.400002	106.689	146.5493
45.000000	106.616	146.1509
45.500000	106.565	145.7690
46.200001	106.490	145.2629
46.799999	106.452	145.0464
47.500000	106.498	144.6272
48.200001	106.540	143.3049
48.700001	106.463	142.1113
49.400002	106.206	141.3544
50.000000	106.012	141.8867
50.799999	105.949	142.8680
51.500000	105.944	143.0304
52.200001	105.885	142.9652
53.000000	105.796	142.9979
53.799999	105.706	142.9098
54.500000	105.613	142.7594
55.200001	105.519	142.6065
56.000000	105.420	142.3596
57.000000	105.299	142.0110
58.000000	105.194	141.7058
59.000000	105.101	141.4316
60.000000	105.014	141.2177
60.799999	104.944	141.0886
61.500000	104.881	141.0012
62.200001	104.815	140.9238
63.000000	104.738	140.8287
64.000000	104.636	140.6839
65.000000	104.532	140.5212
66.000000	104.432	140.3549
67.000000	104.337	140.1762
68.000000	104.246	140.0049
69.000000	104.156	139.8853
70.000000	104.071	139.8011
71.000000	103.987	139.7162
72.000000	103.900	139.6351
73.000000	103.812	139.5553
74.000000	103.724	139.4665
75.000000	103.637	139.3709
76.199997	103.534	139.2675
77.500000	103.427	139.1830
78.800003	103.321	139.1239
80.000000	103.224	139.0889
81.199997	103.126	139.0710
82.500000	103.022	139.0538
83.800003	102.921	139.0187
85.000000	102.828	138.9817
86.199997	102.737	138.9528
87.500000	102.640	138.9295
88.500000	102.566	138.9292
90.000000	102.459	138.9506
91.199997	102.373	138.9620
92.500000	102.277	138.9835
93.800003	102.180	139.0218
95.000000	102.092	139.0525
96.199997	102.006	139.0626
97.500000	101.917	139.0361
98.800003	101.823	138.9807
100.000000	101.730	139.0094
101.500000	101.630	139.1864
103.000000	101.544	139.3412
104.400002	101.459	139.4720
106.000000	101.356	139.6192
107.500000	101.257	139.7508
109.000000	101.161	139.8885
110.599998	101.066	140.0247
112.000000	100.986	140.1225
113.800003	100.880	140.2447
115.000000	100.806	140.3315
117.199997	100.667	140.5051
118.000000	100.615	140.5766
120.599998	100.442	140.8627
122.000000	100.348	141.0512
124.099998	100.204	141.3889
125.000000	100.141	141.5609
126.500000	100.037	141.8866
128.000000	99.933	142.2606
131.500000	99.687	143.4097
132.000000	99.652	143.6220
134.000000	99.523	144.6196
136.000000	99.426	145.8649
138.000000	99.388	147.3483
140.000000	99.445	148.8908
143.000000	99.712	150.4289
145.000000	99.928	150.4635
147.500000	100.118	149.5090
150.000000	100.167	148.1371
152.500000	100.104	146.9479
155.000000	99.988	146.1397
157.500000	99.854	145.6156
160.000000	99.714	145.3117
162.500000	99.580	145.1783
165.000000	99.457	145.1578
167.500000	99.341	145.2180
170.000000	99.232	145.3250
172.500000	99.126	145.4421
175.000000	99.022	145.5677
177.500000	98.925	145.7145
180.000000	98.834	145.8747
182.500000	98.745	146.0517
185.000000	98.658	146.2490
187.500000	98.572	146.4613
190.000000	98.487	146.6794
192.500000	98.404	146.9092
195.000000	98.323	147.1462
197.500000	98.245	147.3826
200.000000	98.169	147.6198
203.000000	98.081	147.9101
206.000000	97.997	148.1982
209.000000	97.913	148.4844
212.000000	97.832	148.7821
214.000000	97.780	148.9827
218.000000	97.677	149.3697
220.000000	97.625	149.5679
224.000000	97.525	149.9727
227.000000	97.454	150.2764
230.000000	97.381	150.5907
233.000000	97.311	150.9034
236.000000	97.242	151.2066
240.000000	97.151	151.6250
243.000000	97.085	151.9508
247.000000	96.998	152.3774
250.000000	96.933	152.6899
254.000000	96.848	153.1234
258.000000	96.765	153.5638
262.000000	96.679	154.0024
265.000000	96.617	154.3586
269.000000	96.535	154.8464
272.000000	96.472	155.2144
276.000000	96.390	155.7579
280.000000	96.311	156.3589
285.000000	96.221	157.1896
290.000000	96.148	158.1469
295.000000	96.112	159.1567
300.000000	96.119	160.0939
304.000000	96.152	160.6520
307.000000	96.181	160.9177
311.000000	96.206	161.0871
315.000000	96.209	161.1321
320.000000	96.187	161.1542
325.000000	96.137	161.2050
330.000000	96.074	161.3424
335.000000	96.008	161.5586
340.000000	95.940	161.8205
345.000000	95.873	162.1445
350.000000	95.809	162.4841
355.000000	95.748	162.8388
360.000000	95.687	163.2310
365.000000	95.628	163.6189
370.000000	95.573	164.0113
375.000000	95.520	164.4208
382.000000	95.451	164.9795
387.000000	95.402	165.3828
395.000000	95.327	166.0310
400.000000	95.285	166.4350
406.000000	95.232	166.9226
412.000000	95.181	167.4115
418.000000	95.134	167.9046
425.000000	95.079	168.4748
431.000000	95.037	168.9679
437.000000	94.997	169.4484
444.000000	94.950	169.9879
450.000000	94.912	170.4516
455.000000	94.880	170.8264
462.000000	94.836	171.3474
468.000000	94.799	171.8213
475.000000	94.756	172.3653
482.000000	94.714	172.9013
487.000000	94.685	173.2967
494.000000	94.646	173.8301
500.000000	94.615	174.2688
508.000000	94.575	174.8751
515.000000	94.544	175.3983
522.000000	94.515	175.9133
530.000000	94.479	176.5132
538.000000	94.447	177.0921
545.000000	94.419	177.5992
552.000000	94.389	178.1183
560.000000	94.359	178.7021
570.000000	94.320	179.4359
580.000000	94.285	-179.8355
590.000000	94.255	-179.1255
600.000000	94.223	-178.4146
608.000000	94.202	-177.8446
615.000000	94.185	-177.3470
622.000000	94.164	-176.8483
630.000000	94.142	-176.2690
640.000000	94.119	-175.5444
650.000000	94.095	-174.8370
660.000000	94.079	-174.1133
670.000000	94.064	-173.3935
680.000000	94.051	-172.6988
690.000000	94.043	-171.9998
700.000000	94.033	-171.3061
710.000000	94.024	-170.5952
720.000000	94.019	-169.8597
730.000000	94.014	-169.1526
740.000000	94.009	-168.4501
750.000000	94.010	-167.7299
762.000000	94.015	-166.8934
775.000000	94.024	-165.9747
788.000000	94.038	-165.0597
800.000000	94.055	-164.2369
812.000000	94.075	-163.3889
825.000000	94.102	-162.5022
838.000000	94.134	-161.6204
850.000000	94.167	-160.7950
862.000000	94.206	-160.0115
875.000000	94.253	-159.1686
885.000000	94.292	-158.5238
900.000000	94.358	-157.6047
912.000000	94.414	-156.8734
925.000000	94.479	-156.1032
938.000000	94.549	-155.3834
950.000000	94.615	-154.7300
962.000000	94.686	-154.1002
975.000000	94.770	-153.4743
988.000000	94.857	-152.8821
1000.000000	94.938	-152.3659
1015.000000	95.047	-151.7851
1030.000000	95.156	-151.2495
1044.000000	95.258	-150.7975
1060.000000	95.379	-150.3580
1075.000000	95.489	-149.9931
1090.000000	95.599	-149.6834
1106.000000	95.718	-149.4252
1120.000000	95.819	-149.2462
1138.000000	95.953	-149.0907
1150.000000	96.045	-149.0418
1172.000000	96.211	-149.0673
1180.000000	96.274	-149.1195
1206.000000	96.495	-149.5746
1220.000000	96.613	-150.1969
1241.000000	96.691	-151.9995
1250.000000	96.621	-152.8254
1265.000000	96.375	-153.1298
1280.000000	96.190	-151.8223
1315.000000	96.297	-148.8131
1320.000000	96.320	-148.6054
1340.000000	96.396	-148.2728
1360.000000	96.468	-148.6676
1380.000000	96.510	-149.4752
1400.000000	96.438	-150.0392
1430.000000	96.317	-148.7875
1450.000000	96.403	-147.8217
1475.000000	96.510	-147.3088
1500.000000	96.563	-147.1683
1525.000000	96.608	-147.1319
1550.000000	96.646	-147.0729
1575.000000	96.676	-146.9702
1600.000000	96.702	-146.8187
1625.000000	96.718	-146.6590
1650.000000	96.734	-146.4506
1675.000000	96.748	-146.2210
1700.000000	96.760	-145.9831
1725.000000	96.773	-145.6966
1750.000000	96.786	-145.4041
1775.000000	96.797	-145.0959
1800.000000	96.811	-144.7428
1825.000000	96.823	-144.3867
1850.000000	96.834	-144.0102
1875.000000	96.848	-143.5927
1900.000000	96.861	-143.1755
1925.000000	96.877	-142.7369
1950.000000	96.898	-142.2564
1975.000000	96.923	-141.7816
2000.000000	96.951	-141.3019
2030.000000	96.992	-140.6742
2060.000000	97.038	-140.0647
2090.000000	97.089	-139.4761
2120.000000	97.143	-138.8609
2140.000000	97.179	-138.4597
2180.000000	97.254	-137.6562
2200.000000	97.294	-137.2316
2240.000000	97.381	-136.3968
2270.000000	97.452	-135.7605
2300.000000	97.531	-135.0972
2330.000000	97.616	-134.4576
2360.000000	97.707	-133.8192
2400.000000	97.839	-132.9382
2430.000000	97.946	-132.3117
2470.000000	98.099	-131.4793
2500.000000	98.221	-130.8494
2540.000000	98.397	-130.0679
2580.000000	98.588	-129.3014
2620.000000	98.794	-128.5734
2650.000000	98.960	-128.0798
2690.000000	99.197	-127.4459
2720.000000	99.387	-127.0148
2760.000000	99.657	-126.5352
2800.000000	99.946	-126.1166
2850.000000	100.342	-125.7619
2900.000000	100.780	-125.6637
2950.000000	101.262	-125.8856
3000.000000	101.789	-126.6681
3040.000000	102.228	-127.7592
3070.000000	102.557	-128.8942
3110.000000	102.986	-130.8683
3150.000000	103.386	-133.3298
3200.000000	103.827	-137.0896
3250.000000	104.180	-141.6135
3300.000000	104.413	-146.7323
3350.000000	104.507	-152.3532
3400.000000	104.447	-158.3410
3450.000000	104.201	-164.4628
3500.000000	103.751	-170.5052
3550.000000	103.082	-176.0448
3600.000000	102.194	179.4384
3650.000000	101.116	176.3464
3700.000000	99.892	175.0948
3750.000000	98.573	176.0604
3820.000000	96.735	-178.4061
3870.000000	95.616	-171.3505
3950.000000	94.685	-156.4446
4000.000000	94.805	-147.0342
4060.000000	95.481	-137.7675
4120.000000	96.409	-131.5661
4180.000000	97.341	-128.0936
4250.000000	98.291	-126.3504
4310.000000	98.968	-126.0573
4370.000000	99.525	-126.3185
4440.000000	100.059	-126.9072
4500.000000	100.451	-127.5139
4550.000000	100.744	-128.0082
4620.000000	101.123	-128.6493
4680.000000	101.438	-129.1939
4750.000000	101.805	-129.8330
4820.000000	102.182	-130.5493
4870.000000	102.463	-131.1794
4940.000000	102.865	-132.2654
5000.000000	103.215	-133.4442
5080.000000	103.681	-135.5115
5150.000000	104.065	-137.8151
5220.000000	104.407	-140.6047
5300.000000	104.722	-144.3834
5380.000000	104.917	-148.6055
5450.000000	104.975	-152.4949
5520.000000	104.928	-156.3844
5600.000000	104.743	-160.5446
5700.000000	104.355	-165.0245
5800.000000	103.852	-168.4896
5900.000000	103.287	-170.8325
6000.000000	102.726	-172.1719
6080.000000	102.301	-172.5794
6150.000000	101.958	-172.5291
6220.000000	101.651	-172.1765
6300.000000	101.346	-171.4509
6400.000000	101.034	-170.1627
6500.000000	100.808	-168.6030
6600.000000	100.662	-166.8468
6700.000000	100.603	-164.9964
6800.000000	100.633	-163.1488
6900.000000	100.741	-161.3556
7000.000000	100.938	-159.7306
7100.000000	101.224	-158.3655
7200.000000	101.596	-157.3447
7300.000000	102.056	-156.8192
7400.000000	102.599	-156.9316
7500.000000	103.213	-157.8640
7620.000000	104.021	-160.4601
7750.000000	104.891	-165.6074
7880.000000	105.590	-173.6096
8000.000000	105.901	176.6987
8120.000000	105.751	165.9690
8250.000000	105.059	155.0677
8380.000000	103.942	146.4772
8500.000000	102.697	141.0360
8620.000000	101.399	137.7161
8750.000000	100.032	135.9927
8850.000000	99.038	135.6488
9000.000000	97.669	136.2496
9120.000000	96.670	137.4474
9250.000000	95.674	139.2614
9380.000000	94.766	141.4694
9500.000000	93.991	143.8062
9620.000000	93.271	146.3790
9750.000000	92.556	149.3738
9880.000000	91.901	152.5666
10000.000000	91.341	155.6674
10150.000000	90.709	159.6978
10300.000000	90.142	163.8835
10440.000000	89.668	167.9044
10600.000000	89.200	172.5860
10750.000000	88.820	177.0521
10900.000000	88.495	-178.4217
11060.000000	88.217	-173.5445
11200.000000	88.030	-169.2249
11380.000000	87.876	-163.6410
11500.000000	87.835	-159.9565
11720.000000	87.868	-153.3774
11800.000000	87.913	-151.0553
12060.000000	88.185	-143.8130
12200.000000	88.407	-140.1401
12410.000000	88.843	-135.0353
12500.000000	89.066	-133.0023
12650.000000	89.485	-129.8139
12800.000000	89.974	-126.9250
13150.000000	91.404	-121.8834
13200.000000	91.637	-121.4121
13400.000000	92.636	-120.3327
13600.000000	93.704	-120.7753
13800.000000	94.763	-123.0221
14000.000000	95.721	-127.1939
14300.000000	96.740	-136.2677
14500.000000	97.078	-143.0042
14750.000000	97.200	-150.6144
15000.000000	97.185	-156.5158
15250.000000	97.267	-161.0543
15500.000000	97.581	-165.2464
15750.000000	98.152	-170.2957
16000.000000	98.909	-177.4024
16250.000000	99.660	172.5069
16500.000000	100.165	159.3608
16750.000000	100.243	144.4693
17000.000000	99.911	129.7496
17250.000000	99.387	116.0594
17500.000000	98.874	102.5797
17750.000000	98.387	87.6352
18000.000000	97.723	70.1781
18250.000000	96.590	51.0752
18500.000000	94.844	32.8098
18750.000000	92.585	17.5190
19000.000000	90.045	5.7188
19250.000000	87.458	-3.2558
19500.000000	84.994	-10.2912
19750.000000	82.825	-15.7292
