* Measurement data measured by REW V5.20.13
* Source: Primary Sound Capture Driver, no input selected, R, volume: no control
* Format: 256k Log Swept Sine, 1 sweep at 0.0 dBFS with no timing reference
* Dated: 09/11/2023 12:28:43 PM
* REW Settings:
*  C-weighting compensation: Off
*  Target level: 75.0 dB
* Note: ; 
* Measurement: Ultimate Ears UE18+ Pro R
* Smoothing: 1/24 octave
* Frequency Step: 1/48 octave
* Start Frequency: 20.000 Hz
*
* Freq(Hz)	SPL(dB)	Phase(degrees)
20.000000	95.592	-153.9925
20.299999	95.589	-154.5594
20.600000	95.572	-155.0044
20.900000	95.553	-155.2885
21.200001	95.551	-155.4482
21.400000	95.563	-155.5450
21.799999	95.611	-155.8214
22.000000	95.641	-156.0397
22.400000	95.692	-156.6477
22.700001	95.711	-157.1812
23.000000	95.711	-157.6848
23.299999	95.700	-158.0956
23.600000	95.688	-158.4021
24.000000	95.683	-158.6956
24.299999	95.693	-158.9051
24.700001	95.715	-159.2580
25.000000	95.727	-159.5935
25.400000	95.728	-160.0842
25.799999	95.706	-160.5081
26.200001	95.676	-160.7689
26.500000	95.660	-160.8563
26.900000	95.659	-160.8989
27.200001	95.676	-160.9540
27.600000	95.713	-161.1449
28.000000	95.747	-161.4917
28.500000	95.766	-162.0355
29.000000	95.760	-162.5088
29.500000	95.751	-162.8248
30.000000	95.757	-163.0521
30.400000	95.773	-163.2462
30.700001	95.788	-163.4176
31.100000	95.805	-163.6705
31.500000	95.817	-163.9257
32.000000	95.826	-164.2080
32.500000	95.831	-164.4257
33.000000	95.838	-164.5764
33.500000	95.852	-164.6814
34.000000	95.873	-164.7884
34.500000	95.898	-164.9486
35.000000	95.919	-165.1771
35.500000	95.927	-165.4406
36.000000	95.924	-165.6870
36.500000	95.916	-165.8901
37.000000	95.909	-166.0649
37.500000	95.904	-166.2415
38.200001	95.900	-166.5104
38.700001	95.896	-166.7051
39.500000	95.896	-167.0198
40.000000	95.898	-167.2259
40.599998	95.899	-167.4590
41.200001	95.904	-167.6562
41.799999	95.917	-167.8570
42.500000	95.932	-168.1444
43.099998	95.934	-168.3866
43.700001	95.932	-168.5700
44.400002	95.933	-168.7424
45.000000	95.933	-168.8977
45.500000	95.932	-169.0295
46.200001	95.927	-169.2099
46.799999	95.919	-169.3571
47.500000	95.911	-169.4909
48.200001	95.912	-169.6104
48.700001	95.918	-169.7358
49.400002	95.920	-169.9561
50.000000	95.918	-170.1140
50.799999	95.923	-170.2859
51.500000	95.929	-170.4499
52.200001	95.934	-170.5753
53.000000	95.951	-170.7129
53.799999	95.963	-170.9513
54.500000	95.956	-171.1246
55.200001	95.951	-171.2160
56.000000	95.950	-171.3479
57.000000	95.936	-171.4557
58.000000	95.946	-171.5091
59.000000	95.953	-171.7586
60.000000	95.942	-171.9109
60.799999	95.949	-172.0272
61.500000	95.950	-172.2053
62.200001	95.939	-172.3475
63.000000	95.932	-172.4240
64.000000	95.937	-172.5596
65.000000	95.932	-172.7258
66.000000	95.929	-172.8222
67.000000	95.934	-172.9314
68.000000	95.936	-173.0652
69.000000	95.936	-173.1692
70.000000	95.940	-173.2701
71.000000	95.939	-173.4185
72.000000	95.927	-173.5285
73.000000	95.922	-173.5557
74.000000	95.932	-173.6469
75.000000	95.932	-173.8440
76.199997	95.918	-173.9984
77.500000	95.920	-174.0885
78.800003	95.924	-174.2960
80.000000	95.911	-174.4152
81.199997	95.910	-174.4223
82.500000	95.923	-174.5256
83.800003	95.921	-174.7067
85.000000	95.910	-174.7974
86.199997	95.908	-174.8579
87.500000	95.909	-174.9641
88.500000	95.907	-175.0647
90.000000	95.899	-175.1903
91.199997	95.895	-175.2501
92.500000	95.895	-175.3215
93.800003	95.895	-175.4262
95.000000	95.889	-175.5166
96.199997	95.884	-175.5776
97.500000	95.883	-175.6378
98.800003	95.884	-175.7336
100.000000	95.880	-175.8465
101.500000	95.870	-175.9426
103.000000	95.867	-176.0059
104.400002	95.866	-176.0730
106.000000	95.866	-176.1511
107.500000	95.865	-176.2279
109.000000	95.863	-176.3250
110.599998	95.858	-176.4553
112.000000	95.849	-176.5729
113.800003	95.836	-176.6944
115.000000	95.829	-176.7544
117.199997	95.819	-176.8308
118.000000	95.815	-176.8541
120.599998	95.798	-176.9275
122.000000	95.786	-176.9719
124.099998	95.771	-177.0449
125.000000	95.768	-177.0736
126.500000	95.766	-177.1214
128.000000	95.765	-177.1740
131.500000	95.754	-177.2610
132.000000	95.753	-177.2724
134.000000	95.751	-177.3668
136.000000	95.747	-177.5146
138.000000	95.742	-177.6298
140.000000	95.736	-177.6871
143.000000	95.726	-177.7255
145.000000	95.719	-177.7640
147.500000	95.715	-177.8465
150.000000	95.710	-177.9261
152.500000	95.705	-178.0010
155.000000	95.698	-178.0629
157.500000	95.692	-178.1165
160.000000	95.685	-178.1813
162.500000	95.676	-178.2593
165.000000	95.669	-178.3386
167.500000	95.664	-178.3892
170.000000	95.659	-178.4160
172.500000	95.651	-178.4476
175.000000	95.639	-178.4875
177.500000	95.629	-178.5365
180.000000	95.619	-178.5947
182.500000	95.609	-178.6469
185.000000	95.598	-178.6833
187.500000	95.587	-178.7025
190.000000	95.577	-178.7100
192.500000	95.566	-178.7120
195.000000	95.555	-178.7125
197.500000	95.543	-178.7122
200.000000	95.529	-178.7054
203.000000	95.510	-178.6772
206.000000	95.490	-178.6277
209.000000	95.471	-178.5520
212.000000	95.455	-178.4375
214.000000	95.447	-178.3377
218.000000	95.438	-178.0751
220.000000	95.439	-177.9384
224.000000	95.444	-177.7563
227.000000	95.439	-177.6655
230.000000	95.424	-177.5162
233.000000	95.407	-177.2462
236.000000	95.402	-176.8449
240.000000	95.434	-176.1531
243.000000	95.499	-175.6148
247.000000	95.642	-175.1114
250.000000	95.771	-175.0398
254.000000	95.932	-175.3983
258.000000	96.044	-176.0904
262.000000	96.100	-176.8630
265.000000	96.115	-177.4007
269.000000	96.113	-178.0092
272.000000	96.101	-178.3789
276.000000	96.081	-178.7724
280.000000	96.060	-179.0749
285.000000	96.036	-179.3517
290.000000	96.018	-179.5514
295.000000	96.001	-179.7274
300.000000	95.986	-179.8801
304.000000	95.977	-179.9888
307.000000	95.972	179.9355
311.000000	95.967	179.8443
315.000000	95.963	179.7645
320.000000	95.960	179.6774
325.000000	95.957	179.5925
330.000000	95.956	179.5065
335.000000	95.956	179.4231
340.000000	95.958	179.3401
345.000000	95.963	179.2568
350.000000	95.968	179.1688
355.000000	95.973	179.0770
360.000000	95.978	178.9837
365.000000	95.984	178.8937
370.000000	95.991	178.8069
375.000000	95.997	178.7213
382.000000	96.008	178.6008
387.000000	96.017	178.5084
395.000000	96.032	178.3482
400.000000	96.043	178.2421
406.000000	96.055	178.1123
412.000000	96.068	177.9772
418.000000	96.082	177.8356
425.000000	96.099	177.6678
431.000000	96.113	177.5196
437.000000	96.127	177.3651
444.000000	96.145	177.1823
450.000000	96.160	177.0231
455.000000	96.174	176.8848
462.000000	96.193	176.6757
468.000000	96.209	176.4849
475.000000	96.227	176.2560
482.000000	96.246	176.0272
487.000000	96.259	175.8655
494.000000	96.277	175.6338
500.000000	96.292	175.4231
508.000000	96.311	175.1254
515.000000	96.329	174.8562
522.000000	96.346	174.5818
530.000000	96.366	174.2610
538.000000	96.384	173.9330
545.000000	96.400	173.6395
552.000000	96.415	173.3384
560.000000	96.432	172.9821
570.000000	96.453	172.5187
580.000000	96.472	172.0388
590.000000	96.490	171.5425
600.000000	96.508	171.0281
608.000000	96.520	170.6021
615.000000	96.530	170.2227
622.000000	96.538	169.8382
630.000000	96.547	169.3876
640.000000	96.555	168.8024
650.000000	96.560	168.1919
660.000000	96.562	167.5572
670.000000	96.561	166.9083
680.000000	96.555	166.2579
690.000000	96.544	165.6090
700.000000	96.529	164.9609
710.000000	96.508	164.3137
720.000000	96.483	163.6675
730.000000	96.455	163.0189
740.000000	96.424	162.3665
750.000000	96.390	161.7146
762.000000	96.345	160.9450
775.000000	96.290	160.1339
788.000000	96.229	159.3483
800.000000	96.167	158.6480
812.000000	96.102	157.9706
825.000000	96.028	157.2622
838.000000	95.951	156.5777
850.000000	95.879	155.9623
862.000000	95.804	155.3649
875.000000	95.720	154.7463
885.000000	95.653	154.2938
900.000000	95.550	153.6579
912.000000	95.466	153.1895
925.000000	95.373	152.7283
938.000000	95.279	152.3113
950.000000	95.193	151.9548
962.000000	95.109	151.6206
975.000000	95.022	151.2838
988.000000	94.936	150.9768
1000.000000	94.860	150.7214
1015.000000	94.766	150.4356
1030.000000	94.675	150.1791
1044.000000	94.592	149.9631
1060.000000	94.501	149.7426
1075.000000	94.418	149.5607
1090.000000	94.337	149.4000
1106.000000	94.253	149.2527
1120.000000	94.182	149.1455
1138.000000	94.093	149.0354
1150.000000	94.037	148.9776
1172.000000	93.939	148.9020
1180.000000	93.905	148.8846
1206.000000	93.800	148.8742
1220.000000	93.747	148.9031
1241.000000	93.671	148.9890
1250.000000	93.641	149.0381
1265.000000	93.595	149.1334
1280.000000	93.554	149.2445
1315.000000	93.481	149.5694
1320.000000	93.473	149.6223
1340.000000	93.449	149.8410
1360.000000	93.437	150.0639
1380.000000	93.438	150.2819
1400.000000	93.451	150.4857
1430.000000	93.491	150.7458
1450.000000	93.529	150.8750
1475.000000	93.590	150.9691
1500.000000	93.663	150.9725
1525.000000	93.745	150.8771
1550.000000	93.832	150.6869
1575.000000	93.922	150.3999
1600.000000	94.009	150.0204
1625.000000	94.092	149.5646
1650.000000	94.166	149.0426
1675.000000	94.233	148.4697
1700.000000	94.291	147.8688
1725.000000	94.339	147.2538
1750.000000	94.379	146.6371
1775.000000	94.411	146.0331
1800.000000	94.436	145.4498
1825.000000	94.456	144.8910
1850.000000	94.473	144.3654
1875.000000	94.487	143.8776
1900.000000	94.498	143.4267
1925.000000	94.509	143.0115
1950.000000	94.520	142.6277
1975.000000	94.534	142.2761
2000.000000	94.552	141.9544
2030.000000	94.579	141.5977
2060.000000	94.612	141.2665
2090.000000	94.652	140.9579
2120.000000	94.701	140.6612
2140.000000	94.738	140.4646
2180.000000	94.825	140.0688
2200.000000	94.876	139.8646
2240.000000	94.991	139.4249
2270.000000	95.089	139.0588
2300.000000	95.196	138.6552
2330.000000	95.312	138.2031
2360.000000	95.437	137.6911
2400.000000	95.615	136.8984
2430.000000	95.756	136.2106
2470.000000	95.952	135.1615
2500.000000	96.103	134.2679
2540.000000	96.306	132.9124
2580.000000	96.509	131.3550
2620.000000	96.707	129.5913
2650.000000	96.848	128.1339
2690.000000	97.022	126.0188
2720.000000	97.139	124.3107
2760.000000	97.272	121.8882
2800.000000	97.376	119.3288
2850.000000	97.463	115.9904
2900.000000	97.499	112.5820
2950.000000	97.485	109.1935
3000.000000	97.424	105.9127
3040.000000	97.345	103.4189
3070.000000	97.273	101.6427
3110.000000	97.164	99.4129
3150.000000	97.046	97.3460
3200.000000	96.898	94.9868
3250.000000	96.759	92.8553
3300.000000	96.641	90.9183
3350.000000	96.557	89.1203
3400.000000	96.522	87.3608
3450.000000	96.549	85.4838
3500.000000	96.644	83.2777
3550.000000	96.799	80.4897
3600.000000	96.986	76.8698
3650.000000	97.164	72.2329
3700.000000	97.286	66.5093
3750.000000	97.305	59.7580
3820.000000	97.092	48.8899
3870.000000	96.736	40.4229
3950.000000	95.799	26.3374
4000.000000	95.000	17.5197
4060.000000	93.864	7.1136
4120.000000	92.584	-3.1240
4180.000000	91.221	-13.4261
4250.000000	89.625	-26.0283
4310.000000	88.361	-37.7606
4370.000000	87.326	-50.5529
4440.000000	86.598	-66.5338
4500.000000	86.498	-80.4025
4550.000000	86.778	-91.4677
4620.000000	87.592	-105.5403
4680.000000	88.525	-116.1041
4750.000000	89.720	-126.9154
4820.000000	90.908	-136.5775
4870.000000	91.706	-143.0349
4940.000000	92.712	-151.6862
5000.000000	93.447	-158.8319
5080.000000	94.227	-167.9714
5150.000000	94.724	-175.5068
5220.000000	95.062	177.5026
5300.000000	95.282	170.2859
5380.000000	95.356	163.9676
5450.000000	95.327	159.2138
5520.000000	95.229	155.2004
5600.000000	95.059	151.5067
5700.000000	94.804	148.1190
5800.000000	94.544	145.8722
5900.000000	94.304	144.4994
6000.000000	94.092	143.7708
6080.000000	93.945	143.5410
6150.000000	93.832	143.5495
6220.000000	93.732	143.7238
6300.000000	93.633	144.1108
6400.000000	93.536	144.8889
6500.000000	93.479	145.9507
6600.000000	93.473	147.2502
6700.000000	93.535	148.7287
6800.000000	93.687	150.2159
6900.000000	93.933	151.3032
7000.000000	94.185	151.4930
7100.000000	94.296	151.3665
7200.000000	94.354	152.2393
7300.000000	94.567	153.8418
7400.000000	94.965	155.1426
7500.000000	95.487	155.6000
7620.000000	96.205	154.6704
7750.000000	96.990	151.3953
7880.000000	97.614	145.4144
8000.000000	97.859	137.8008
8120.000000	97.656	129.3726
8250.000000	96.921	121.1961
8380.000000	95.786	115.4896
8500.000000	94.564	112.7955
8620.000000	93.319	112.2938
8750.000000	92.046	113.6730
8850.000000	91.156	115.7443
9000.000000	89.984	120.0128
9120.000000	89.192	124.1350
9250.000000	88.473	129.0709
9380.000000	87.893	134.3081
9500.000000	87.479	139.2640
9620.000000	87.176	144.2109
9750.000000	86.966	149.4136
9880.000000	86.870	154.2742
10000.000000	86.866	158.2916
10150.000000	86.936	162.4718
10300.000000	87.027	165.5472
10440.000000	87.056	167.4374
10600.000000	86.938	168.8152
10750.000000	86.639	170.0266
10900.000000	86.171	171.8881
11060.000000	85.567	175.1229
11200.000000	85.032	179.1121
11380.000000	84.448	-174.4818
11500.000000	84.157	-169.7509
11720.000000	83.762	-160.6171
11800.000000	83.651	-156.8958
12060.000000	83.751	-143.5562
12200.000000	84.109	-136.8376
12410.000000	84.923	-128.1204
12500.000000	85.349	-124.9874
12650.000000	86.133	-120.6507
12800.000000	86.995	-117.5248
13150.000000	88.992	-116.5923
13200.000000	89.222	-117.2537
13400.000000	89.869	-121.3398
13600.000000	90.013	-126.1947
13800.000000	89.741	-129.9131
14000.000000	89.214	-131.9208
14300.000000	88.016	-130.1113
14500.000000	87.390	-124.4305
14750.000000	87.353	-116.0303
15000.000000	87.941	-109.2589
15250.000000	88.722	-105.2231
15500.000000	89.494	-102.6343
15750.000000	90.379	-100.5101
16000.000000	91.516	-99.2997
16250.000000	92.909	-100.1740
16500.000000	94.405	-104.3885
16750.000000	95.733	-112.6161
17000.000000	96.645	-124.1826
17250.000000	97.044	-137.2881
17500.000000	97.010	-150.0226
17750.000000	96.740	-161.5844
18000.000000	96.397	-172.3224
18250.000000	96.048	177.1525
18500.000000	95.755	166.3640
18750.000000	95.565	153.9557
19000.000000	95.264	138.5434
19250.000000	94.539	121.0038
19500.000000	93.316	103.6096
19750.000000	91.800	88.6726
