* Measurement data measured by REW V5.20.13
* Source: Primary Sound Capture Driver, no input selected, R, volume: no control
* Format: 256k Log Swept Sine, 1 sweep at 0.0 dBFS with no timing reference
* Dated: 09/11/2023 12:26:43 PM
* REW Settings:
*  C-weighting compensation: Off
*  Target level: 75.0 dB
* Note: ; 
* Measurement: Ultimate Ears UE18+ Pro L
* Smoothing: 1/24 octave
* Frequency Step: 1/48 octave
* Start Frequency: 20.000 Hz
*
* Freq(Hz)	SPL(dB)	Phase(degrees)
20.000000	94.314	-126.3839
20.299999	94.379	-126.7343
20.600000	94.452	-127.0977
20.900000	94.532	-127.5143
21.200001	94.611	-128.0078
21.400000	94.661	-128.3741
21.799999	94.746	-129.1589
22.000000	94.783	-129.5559
22.400000	94.845	-130.3194
22.700001	94.888	-130.8569
23.000000	94.930	-131.3745
23.299999	94.973	-131.8874
23.600000	95.016	-132.4007
24.000000	95.070	-133.0808
24.299999	95.110	-133.5779
24.700001	95.163	-134.2206
25.000000	95.204	-134.6963
25.400000	95.257	-135.3344
25.799999	95.305	-135.9651
26.200001	95.346	-136.5441
26.500000	95.375	-136.9192
26.900000	95.419	-137.3417
27.200001	95.460	-137.6313
27.600000	95.525	-138.0399
28.000000	95.591	-138.5204
28.500000	95.661	-139.2009
29.000000	95.709	-139.8631
29.500000	95.745	-140.4343
30.000000	95.781	-140.9363
30.400000	95.812	-141.3285
30.700001	95.834	-141.6279
31.100000	95.863	-142.0323
31.500000	95.890	-142.4372
32.000000	95.923	-142.9404
32.500000	95.955	-143.4412
33.000000	95.988	-143.9352
33.500000	96.024	-144.4204
34.000000	96.063	-144.9085
34.500000	96.102	-145.4096
35.000000	96.138	-145.9088
35.500000	96.170	-146.3724
36.000000	96.203	-146.7857
36.500000	96.238	-147.1714
37.000000	96.275	-147.5673
37.500000	96.308	-147.9841
38.200001	96.339	-148.5533
38.700001	96.355	-148.9173
39.500000	96.385	-149.4667
40.000000	96.408	-149.8442
40.599998	96.437	-150.3752
41.200001	96.459	-150.9989
41.799999	96.464	-151.6371
42.500000	96.459	-152.2074
43.099998	96.478	-152.5229
43.700001	96.525	-152.8580
44.400002	96.579	-153.3233
45.000000	96.617	-153.5921
45.500000	96.662	-153.7063
46.200001	96.733	-153.8991
46.799999	96.766	-153.9895
47.500000	96.823	-153.6007
48.200001	97.003	-153.2725
48.700001	97.159	-153.7647
49.400002	97.232	-155.3914
50.000000	97.117	-156.5390
50.799999	96.915	-156.7519
51.500000	96.854	-156.5685
52.200001	96.840	-156.7942
53.000000	96.807	-157.2574
53.799999	96.787	-157.6974
54.500000	96.783	-158.1331
55.200001	96.786	-158.5445
56.000000	96.804	-158.9580
57.000000	96.835	-159.4385
58.000000	96.867	-159.8094
59.000000	96.893	-160.1456
60.000000	96.903	-160.4323
60.799999	96.909	-160.6433
61.500000	96.914	-160.8712
62.200001	96.917	-161.1389
63.000000	96.917	-161.4664
64.000000	96.920	-161.8874
65.000000	96.927	-162.2949
66.000000	96.935	-162.6753
67.000000	96.941	-162.9630
68.000000	96.958	-163.1738
69.000000	96.974	-163.4604
70.000000	96.970	-163.7566
71.000000	96.961	-163.9608
72.000000	96.965	-164.1538
73.000000	96.978	-164.4230
74.000000	96.991	-164.7572
75.000000	97.001	-165.1027
76.199997	97.009	-165.4860
77.500000	97.014	-165.8256
78.800003	97.019	-166.1298
80.000000	97.023	-166.4062
81.199997	97.023	-166.7101
82.500000	97.016	-167.0192
83.800003	97.012	-167.3000
85.000000	97.013	-167.5541
86.199997	97.015	-167.8313
87.500000	97.012	-168.1323
88.500000	97.010	-168.3383
90.000000	97.011	-168.6101
91.199997	97.016	-168.7921
92.500000	97.030	-168.9837
93.800003	97.041	-169.2172
95.000000	97.040	-169.4345
96.199997	97.034	-169.6264
97.500000	97.026	-169.8760
98.800003	97.005	-170.1381
100.000000	96.996	-170.2905
101.500000	97.016	-170.6190
103.000000	97.022	-171.0833
104.400002	97.019	-171.4151
106.000000	97.016	-171.7061
107.500000	97.010	-171.9465
109.000000	97.000	-172.1802
110.599998	96.986	-172.4418
112.000000	96.974	-172.6687
113.800003	96.962	-172.9490
115.000000	96.955	-173.1264
117.199997	96.942	-173.4236
118.000000	96.938	-173.5296
120.599998	96.920	-173.8907
122.000000	96.909	-174.0796
124.099998	96.893	-174.3478
125.000000	96.887	-174.4625
126.500000	96.877	-174.6574
128.000000	96.867	-174.8506
131.500000	96.841	-175.2563
132.000000	96.837	-175.3112
134.000000	96.822	-175.5263
136.000000	96.805	-175.7347
138.000000	96.788	-175.9421
140.000000	96.771	-176.1430
143.000000	96.745	-176.4221
145.000000	96.727	-176.6171
147.500000	96.705	-176.8587
150.000000	96.682	-177.0815
152.500000	96.659	-177.2752
155.000000	96.634	-177.4695
157.500000	96.607	-177.6667
160.000000	96.583	-177.8605
162.500000	96.560	-178.0444
165.000000	96.538	-178.2159
167.500000	96.514	-178.3792
170.000000	96.488	-178.5382
172.500000	96.461	-178.6788
175.000000	96.435	-178.8027
177.500000	96.409	-178.9236
180.000000	96.381	-179.0407
182.500000	96.355	-179.1543
185.000000	96.328	-179.2723
187.500000	96.301	-179.3866
190.000000	96.273	-179.4869
192.500000	96.244	-179.5774
195.000000	96.212	-179.6569
197.500000	96.179	-179.7192
200.000000	96.147	-179.7652
203.000000	96.109	-179.8061
206.000000	96.068	-179.8259
209.000000	96.026	-179.8180
212.000000	95.982	-179.7799
214.000000	95.952	-179.7352
218.000000	95.890	-179.5773
220.000000	95.860	-179.4542
224.000000	95.803	-179.0885
227.000000	95.769	-178.6917
230.000000	95.750	-178.1938
233.000000	95.756	-177.6210
236.000000	95.796	-177.0425
240.000000	95.907	-176.4608
243.000000	96.018	-176.3094
247.000000	96.159	-176.5556
250.000000	96.236	-176.9962
254.000000	96.292	-177.7196
258.000000	96.302	-178.4040
262.000000	96.284	-178.9603
265.000000	96.260	-179.2981
269.000000	96.224	-179.6555
272.000000	96.195	-179.8606
276.000000	96.159	179.9276
280.000000	96.123	179.7704
285.000000	96.080	179.6294
290.000000	96.040	179.5311
295.000000	96.003	179.4704
300.000000	95.970	179.4295
304.000000	95.946	179.4096
307.000000	95.929	179.3990
311.000000	95.908	179.3935
315.000000	95.889	179.3975
320.000000	95.865	179.4073
325.000000	95.843	179.4288
330.000000	95.823	179.4590
335.000000	95.805	179.4956
340.000000	95.788	179.5361
345.000000	95.773	179.5751
350.000000	95.759	179.6206
355.000000	95.747	179.6777
360.000000	95.737	179.7350
365.000000	95.729	179.8012
370.000000	95.721	179.8771
375.000000	95.714	179.9470
382.000000	95.707	-179.9598
387.000000	95.704	-179.8965
395.000000	95.702	-179.7946
400.000000	95.700	-179.7243
406.000000	95.701	-179.6373
412.000000	95.704	-179.5487
418.000000	95.707	-179.4587
425.000000	95.715	-179.3588
431.000000	95.722	-179.2809
437.000000	95.732	-179.2138
444.000000	95.745	-179.1319
450.000000	95.758	-179.0664
455.000000	95.769	-179.0131
462.000000	95.787	-178.9336
468.000000	95.803	-178.8703
475.000000	95.824	-178.8055
482.000000	95.846	-178.7488
487.000000	95.862	-178.7184
494.000000	95.887	-178.6772
500.000000	95.910	-178.6375
508.000000	95.943	-178.5957
515.000000	95.973	-178.5695
522.000000	96.003	-178.5489
530.000000	96.041	-178.5424
538.000000	96.081	-178.5450
545.000000	96.118	-178.5567
552.000000	96.157	-178.5871
560.000000	96.203	-178.6416
570.000000	96.262	-178.7415
580.000000	96.321	-178.8708
590.000000	96.380	-179.0132
600.000000	96.441	-179.1797
608.000000	96.489	-179.3358
615.000000	96.532	-179.4861
622.000000	96.576	-179.6524
630.000000	96.627	-179.8657
640.000000	96.690	179.8386
650.000000	96.755	179.5161
660.000000	96.819	179.1552
670.000000	96.882	178.7603
680.000000	96.943	178.3378
690.000000	97.001	177.8812
700.000000	97.058	177.3985
710.000000	97.112	176.8869
720.000000	97.163	176.3373
730.000000	97.213	175.7574
740.000000	97.259	175.1484
750.000000	97.302	174.5067
762.000000	97.347	173.7076
775.000000	97.388	172.8074
788.000000	97.420	171.8814
800.000000	97.442	171.0163
812.000000	97.458	170.1203
825.000000	97.468	169.1312
838.000000	97.472	168.1274
850.000000	97.469	167.1841
862.000000	97.459	166.2391
875.000000	97.438	165.2073
885.000000	97.415	164.4146
900.000000	97.369	163.2509
912.000000	97.324	162.3387
925.000000	97.268	161.3766
938.000000	97.205	160.4510
950.000000	97.144	159.6202
962.000000	97.079	158.8186
975.000000	97.003	157.9939
988.000000	96.924	157.2098
1000.000000	96.849	156.5211
1015.000000	96.751	155.7134
1030.000000	96.650	154.9559
1044.000000	96.555	154.2938
1060.000000	96.444	153.5979
1075.000000	96.340	152.9968
1090.000000	96.237	152.4419
1106.000000	96.128	151.9025
1120.000000	96.033	151.4706
1138.000000	95.913	150.9731
1150.000000	95.833	150.6801
1172.000000	95.689	150.2213
1180.000000	95.638	150.0797
1206.000000	95.475	149.7002
1220.000000	95.393	149.5451
1241.000000	95.277	149.3741
1250.000000	95.230	149.3234
1265.000000	95.157	149.2685
1280.000000	95.091	149.2466
1315.000000	94.956	149.2941
1320.000000	94.940	149.3111
1340.000000	94.882	149.3990
1360.000000	94.835	149.5075
1380.000000	94.801	149.6275
1400.000000	94.781	149.7428
1430.000000	94.774	149.8807
1450.000000	94.784	149.9380
1475.000000	94.808	149.9495
1500.000000	94.845	149.8872
1525.000000	94.891	149.7303
1550.000000	94.941	149.4839
1575.000000	94.993	149.1607
1600.000000	95.041	148.7562
1625.000000	95.085	148.2934
1650.000000	95.123	147.7768
1675.000000	95.153	147.2256
1700.000000	95.175	146.6710
1725.000000	95.187	146.1140
1750.000000	95.190	145.5779
1775.000000	95.186	145.0700
1800.000000	95.175	144.5850
1825.000000	95.160	144.1436
1850.000000	95.142	143.7536
1875.000000	95.122	143.4070
1900.000000	95.103	143.1146
1925.000000	95.086	142.8745
1950.000000	95.073	142.6741
1975.000000	95.063	142.5209
2000.000000	95.061	142.4110
2030.000000	95.066	142.2969
2060.000000	95.081	142.1875
2090.000000	95.107	142.0820
2120.000000	95.140	141.9696
2140.000000	95.166	141.8993
2180.000000	95.227	141.7789
2200.000000	95.264	141.7196
2240.000000	95.352	141.6052
2270.000000	95.430	141.5099
2300.000000	95.520	141.3837
2330.000000	95.622	141.2286
2360.000000	95.735	141.0357
2400.000000	95.902	140.6891
2430.000000	96.038	140.3635
2470.000000	96.233	139.8154
2500.000000	96.387	139.3006
2540.000000	96.602	138.4801
2580.000000	96.826	137.4788
2620.000000	97.052	136.2777
2650.000000	97.220	135.2485
2690.000000	97.439	133.6872
2720.000000	97.597	132.3741
2760.000000	97.794	130.4510
2800.000000	97.970	128.3357
2850.000000	98.154	125.4643
2900.000000	98.292	122.4192
2950.000000	98.380	119.2722
3000.000000	98.423	116.1138
3040.000000	98.427	113.6003
3070.000000	98.413	111.7394
3110.000000	98.371	109.3315
3150.000000	98.303	107.0448
3200.000000	98.193	104.4228
3250.000000	98.071	102.1331
3300.000000	97.961	100.1655
3350.000000	97.886	98.4709
3400.000000	97.869	96.9305
3450.000000	97.927	95.3215
3500.000000	98.065	93.3901
3550.000000	98.265	90.8662
3600.000000	98.494	87.5239
3650.000000	98.706	83.2757
3700.000000	98.864	78.1336
3750.000000	98.936	72.1747
3820.000000	98.854	62.6965
3870.000000	98.645	55.2693
3950.000000	98.022	42.6118
4000.000000	97.446	34.4529
4060.000000	96.574	24.6155
4120.000000	95.529	14.8589
4180.000000	94.345	5.1569
4250.000000	92.854	-6.3750
4310.000000	91.544	-16.8112
4370.000000	90.288	-28.1692
4440.000000	89.036	-42.9280
4500.000000	88.304	-56.7594
4550.000000	88.030	-68.7230
4620.000000	88.199	-85.1743
4680.000000	88.771	-98.1797
4750.000000	89.737	-111.5663
4820.000000	90.828	-123.0801
4870.000000	91.606	-130.3472
4940.000000	92.632	-139.4935
5000.000000	93.426	-146.5888
5080.000000	94.343	-155.2059
5150.000000	95.018	-162.1125
5220.000000	95.579	-168.5529
5300.000000	96.081	-175.4211
5380.000000	96.437	178.2359
5450.000000	96.639	173.1999
5520.000000	96.753	168.7270
5600.000000	96.799	164.3359
5700.000000	96.775	159.9014
5800.000000	96.699	156.5136
5900.000000	96.601	153.9570
6000.000000	96.488	152.0687
6080.000000	96.390	150.9513
6150.000000	96.301	150.2378
6220.000000	96.211	149.7778
6300.000000	96.115	149.5360
6400.000000	96.014	149.6130
6500.000000	95.941	150.1130
6600.000000	95.919	150.9950
6700.000000	95.980	152.1393
6800.000000	96.158	153.1810
6900.000000	96.413	153.3479
7000.000000	96.540	152.5539
7100.000000	96.479	152.5541
7200.000000	96.497	154.0677
7300.000000	96.743	155.9098
7400.000000	97.168	157.1668
7500.000000	97.707	157.4814
7620.000000	98.429	156.3113
7750.000000	99.198	152.7145
7880.000000	99.776	146.4421
8000.000000	99.959	138.7147
8120.000000	99.695	130.4058
8250.000000	98.917	122.5994
8380.000000	97.776	117.3455
8500.000000	96.581	114.9902
8620.000000	95.380	114.6975
8750.000000	94.159	116.1707
8850.000000	93.307	118.2424
9000.000000	92.189	122.4379
9120.000000	91.432	126.4537
9250.000000	90.750	131.2377
9380.000000	90.204	136.3035
9500.000000	89.820	141.0883
9620.000000	89.548	145.8474
9750.000000	89.373	150.8269
9880.000000	89.314	155.4396
10000.000000	89.349	159.1880
10150.000000	89.465	162.9396
10300.000000	89.583	165.4493
10440.000000	89.607	166.7061
10600.000000	89.438	167.3604
10750.000000	89.060	168.0385
10900.000000	88.513	169.6108
11060.000000	87.845	172.7592
11200.000000	87.272	176.7748
11380.000000	86.650	-176.6564
11500.000000	86.346	-171.6790
11720.000000	86.073	-162.0615
11800.000000	86.065	-158.6038
12060.000000	86.258	-148.2455
12200.000000	86.419	-142.9184
12410.000000	86.885	-134.4337
12500.000000	87.227	-130.9829
12650.000000	87.958	-126.1916
12800.000000	88.804	-123.0188
13150.000000	90.672	-122.8862
13200.000000	90.874	-123.6670
13400.000000	91.396	-128.2057
13600.000000	91.382	-133.8682
13800.000000	90.733	-138.2125
14000.000000	89.652	-137.7133
14300.000000	88.550	-130.5259
14500.000000	88.219	-124.8574
14750.000000	88.205	-116.7908
15000.000000	88.727	-109.5858
15250.000000	89.517	-104.5634
15500.000000	90.376	-101.3158
15750.000000	91.320	-99.0527
16000.000000	92.463	-97.8585
16250.000000	93.828	-98.7559
16500.000000	95.262	-102.9299
16750.000000	96.501	-110.8580
17000.000000	97.326	-121.6428
17250.000000	97.691	-133.3865
17500.000000	97.726	-144.6234
17750.000000	97.595	-154.9662
18000.000000	97.451	-164.5552
18250.000000	97.464	-174.2947
18500.000000	97.643	173.8675
18750.000000	97.719	158.5145
19000.000000	97.387	140.1978
19250.000000	96.518	120.7544
19500.000000	95.150	101.8960
19750.000000	93.468	85.6713
