* Measurement data measured by REW V5.20.13
* Source: Primary Sound Capture Driver, no input selected, R, volume: no control
* Format: 256k Log Swept Sine, 1 sweep at -6.0 dBFS with no timing reference
* Dated: 01/11/2023 2:25:57 PM
* REW Settings:
*  C-weighting compensation: Off
*  Target level: 75.0 dB
* Note: ; 
* Measurement: Unique Melody MEST MK3 R
* Smoothing: 1/24 octave
* Frequency Step: 1/48 octave
* Start Frequency: 20.000 Hz
*
* Freq(Hz)	SPL(dB)	Phase(degrees)
20.000000	103.150	163.1228
20.299999	103.124	162.6417
20.600000	103.098	162.1797
20.900000	103.072	161.7322
21.200001	103.049	161.2859
21.400000	103.034	160.9816
21.799999	103.002	160.3529
22.000000	102.984	160.0308
22.400000	102.942	159.3871
22.700001	102.906	158.9240
23.000000	102.867	158.4946
23.299999	102.827	158.1031
23.600000	102.790	157.7431
24.000000	102.748	157.2886
24.299999	102.722	156.9427
24.700001	102.690	156.4510
25.000000	102.666	156.0563
25.400000	102.630	155.5116
25.799999	102.588	154.9782
26.200001	102.544	154.4808
26.500000	102.511	154.1311
26.900000	102.472	153.6812
27.200001	102.445	153.3427
27.600000	102.410	152.8795
28.000000	102.374	152.4065
28.500000	102.326	151.8214
29.000000	102.275	151.2580
29.500000	102.225	150.7108
30.000000	102.174	150.1691
30.400000	102.131	149.7405
30.700001	102.097	149.4260
31.100000	102.052	149.0213
31.500000	102.005	148.6349
32.000000	101.949	148.1713
32.500000	101.895	147.7139
33.000000	101.843	147.2476
33.500000	101.790	146.7691
34.000000	101.736	146.2845
34.500000	101.682	145.8007
35.000000	101.626	145.3213
35.500000	101.570	144.8510
36.000000	101.514	144.3964
36.500000	101.460	143.9592
37.000000	101.408	143.5300
37.500000	101.358	143.0984
38.200001	101.288	142.4915
38.700001	101.237	142.0706
39.500000	101.154	141.4316
40.000000	101.104	141.0463
40.599998	101.042	140.5925
41.200001	100.980	140.1501
41.799999	100.918	139.7214
42.500000	100.845	139.2382
43.099998	100.783	138.8343
43.700001	100.724	138.4282
44.400002	100.653	137.9454
45.000000	100.590	137.5402
45.500000	100.538	137.2221
46.200001	100.469	136.7964
46.799999	100.413	136.4239
47.500000	100.346	135.9755
48.200001	100.278	135.5410
48.700001	100.228	135.2459
49.400002	100.162	134.8398
50.000000	100.104	134.4884
50.799999	100.026	134.0228
51.500000	99.956	133.6298
52.200001	99.887	133.2524
53.000000	99.809	132.8305
53.799999	99.733	132.4112
54.500000	99.666	132.0528
55.200001	99.600	131.7043
56.000000	99.527	131.3098
57.000000	99.435	130.8222
58.000000	99.343	130.3499
59.000000	99.250	129.8983
60.000000	99.160	129.4675
60.799999	99.091	129.1195
61.500000	99.030	128.8113
62.200001	98.969	128.5091
63.000000	98.901	128.1702
64.000000	98.816	127.7503
65.000000	98.732	127.3505
66.000000	98.651	126.9612
67.000000	98.568	126.5755
68.000000	98.484	126.2191
69.000000	98.404	125.8757
70.000000	98.323	125.5262
71.000000	98.243	125.1756
72.000000	98.163	124.8297
73.000000	98.083	124.4989
74.000000	98.006	124.1801
75.000000	97.931	123.8665
76.199997	97.843	123.4833
77.500000	97.744	123.0759
78.800003	97.646	122.7025
80.000000	97.557	122.3716
81.199997	97.471	122.0385
82.500000	97.379	121.6737
83.800003	97.289	121.3171
85.000000	97.206	120.9933
86.199997	97.123	120.6893
87.500000	97.035	120.3831
88.500000	96.969	120.1551
90.000000	96.871	119.8085
91.199997	96.793	119.5328
92.500000	96.710	119.2430
93.800003	96.630	118.9524
95.000000	96.557	118.6819
96.199997	96.485	118.4106
97.500000	96.407	118.1260
98.800003	96.330	117.8554
100.000000	96.260	117.6033
101.500000	96.171	117.2923
103.000000	96.084	117.0034
104.400002	96.005	116.7687
106.000000	95.924	116.5222
107.500000	95.852	116.2457
109.000000	95.773	115.9524
110.599998	95.685	115.6678
112.000000	95.611	115.4280
113.800003	95.519	115.1202
115.000000	95.460	114.9245
117.199997	95.356	114.5707
118.000000	95.318	114.4433
120.599998	95.197	114.0384
122.000000	95.133	113.8202
124.099998	95.039	113.5006
125.000000	95.000	113.3687
126.500000	94.935	113.1553
128.000000	94.871	112.9492
131.500000	94.728	112.4526
132.000000	94.707	112.3799
134.000000	94.626	112.1072
136.000000	94.548	111.8516
138.000000	94.471	111.5989
140.000000	94.395	111.3544
143.000000	94.285	110.9807
145.000000	94.213	110.7183
147.500000	94.125	110.3970
150.000000	94.042	110.0941
152.500000	93.962	109.8197
155.000000	93.885	109.5323
157.500000	93.807	109.2377
160.000000	93.734	108.9548
162.500000	93.663	108.6986
165.000000	93.593	108.4484
167.500000	93.523	108.1755
170.000000	93.455	107.8881
172.500000	93.389	107.6129
175.000000	93.326	107.3534
177.500000	93.266	107.0960
180.000000	93.207	106.8441
182.500000	93.150	106.5936
185.000000	93.094	106.3471
187.500000	93.041	106.1052
190.000000	92.990	105.8633
192.500000	92.939	105.6235
195.000000	92.889	105.3814
197.500000	92.840	105.1359
200.000000	92.793	104.8917
203.000000	92.738	104.6060
206.000000	92.687	104.3251
209.000000	92.637	104.0472
212.000000	92.589	103.7828
214.000000	92.557	103.6133
218.000000	92.497	103.2699
220.000000	92.468	103.0908
224.000000	92.413	102.7275
227.000000	92.374	102.4592
230.000000	92.338	102.1943
233.000000	92.303	101.9335
236.000000	92.269	101.6838
240.000000	92.224	101.3582
243.000000	92.192	101.1157
247.000000	92.154	100.8141
250.000000	92.127	100.5916
254.000000	92.099	100.2870
258.000000	92.075	99.9861
262.000000	92.051	99.6862
265.000000	92.036	99.4473
269.000000	92.018	99.1143
272.000000	92.005	98.8616
276.000000	91.988	98.5316
280.000000	91.971	98.2123
285.000000	91.950	97.8416
290.000000	91.935	97.5341
295.000000	91.936	97.2620
300.000000	91.959	96.9811
304.000000	91.989	96.6940
307.000000	92.015	96.4208
311.000000	92.050	95.9807
315.000000	92.077	95.4730
320.000000	92.099	94.7944
325.000000	92.109	94.1234
330.000000	92.112	93.4800
335.000000	92.114	92.8683
340.000000	92.118	92.2900
345.000000	92.123	91.7314
350.000000	92.128	91.1855
355.000000	92.136	90.6670
360.000000	92.145	90.1681
365.000000	92.157	89.6735
370.000000	92.170	89.1802
375.000000	92.185	88.6891
382.000000	92.210	88.0038
387.000000	92.230	87.5151
395.000000	92.267	86.7245
400.000000	92.292	86.2246
406.000000	92.322	85.6286
412.000000	92.355	85.0380
418.000000	92.388	84.4469
425.000000	92.428	83.7566
431.000000	92.464	83.1628
437.000000	92.502	82.5701
444.000000	92.549	81.8793
450.000000	92.590	81.2812
455.000000	92.625	80.7799
462.000000	92.675	80.0845
468.000000	92.721	79.4927
475.000000	92.774	78.7806
482.000000	92.826	78.0565
487.000000	92.862	77.5427
494.000000	92.914	76.8179
500.000000	92.959	76.1934
508.000000	93.020	75.3622
515.000000	93.074	74.6342
522.000000	93.128	73.9028
530.000000	93.188	73.0677
538.000000	93.248	72.2266
545.000000	93.300	71.4890
552.000000	93.352	70.7512
560.000000	93.408	69.9059
570.000000	93.479	68.8517
580.000000	93.548	67.8033
590.000000	93.615	66.7577
600.000000	93.681	65.7078
608.000000	93.733	64.8692
615.000000	93.777	64.1411
622.000000	93.820	63.4192
630.000000	93.868	62.5983
640.000000	93.927	61.5703
650.000000	93.988	60.5298
660.000000	94.048	59.4421
670.000000	94.093	58.2472
680.000000	94.098	57.0903
690.000000	94.090	56.2453
700.000000	94.115	55.5491
710.000000	94.158	54.7743
720.000000	94.200	53.9446
730.000000	94.239	53.1098
740.000000	94.274	52.2878
750.000000	94.306	51.4824
762.000000	94.342	50.5341
775.000000	94.380	49.5306
788.000000	94.414	48.5535
800.000000	94.444	47.6850
812.000000	94.473	46.8568
825.000000	94.503	45.9999
838.000000	94.533	45.1716
850.000000	94.562	44.4241
862.000000	94.593	43.6976
875.000000	94.628	42.9383
885.000000	94.657	42.3718
900.000000	94.700	41.5485
912.000000	94.735	40.9107
925.000000	94.775	40.2347
938.000000	94.816	39.5711
950.000000	94.858	38.9677
962.000000	94.902	38.3700
975.000000	94.952	37.7260
988.000000	95.006	37.0850
1000.000000	95.058	36.4943
1015.000000	95.126	35.7490
1030.000000	95.196	34.9833
1044.000000	95.263	34.2481
1060.000000	95.340	33.3828
1075.000000	95.411	32.5445
1090.000000	95.481	31.6809
1106.000000	95.554	30.7370
1120.000000	95.616	29.8959
1138.000000	95.693	28.7971
1150.000000	95.742	28.0521
1172.000000	95.825	26.6666
1180.000000	95.853	26.1604
1206.000000	95.937	24.5131
1220.000000	95.978	23.6184
1241.000000	96.034	22.2670
1250.000000	96.055	21.6880
1265.000000	96.088	20.7275
1280.000000	96.117	19.7756
1315.000000	96.168	17.5981
1320.000000	96.174	17.2917
1340.000000	96.196	16.0787
1360.000000	96.214	14.8846
1380.000000	96.229	13.7156
1400.000000	96.239	12.5771
1430.000000	96.246	10.9263
1450.000000	96.246	9.8600
1475.000000	96.244	8.5619
1500.000000	96.239	7.3107
1525.000000	96.233	6.1007
1550.000000	96.226	4.9174
1575.000000	96.219	3.7738
1600.000000	96.213	2.6675
1625.000000	96.208	1.5870
1650.000000	96.203	0.5350
1675.000000	96.200	-0.4952
1700.000000	96.198	-1.5073
1725.000000	96.197	-2.5029
1750.000000	96.198	-3.4852
1775.000000	96.202	-4.4570
1800.000000	96.207	-5.4197
1825.000000	96.214	-6.3793
1850.000000	96.223	-7.3375
1875.000000	96.233	-8.2949
1900.000000	96.244	-9.2539
1925.000000	96.257	-10.2189
1950.000000	96.270	-11.1901
1975.000000	96.284	-12.1671
2000.000000	96.298	-13.1547
2030.000000	96.316	-14.3574
2060.000000	96.334	-15.5795
2090.000000	96.354	-16.8243
2120.000000	96.374	-18.0955
2140.000000	96.386	-18.9579
2180.000000	96.409	-20.7180
2200.000000	96.418	-21.6149
2240.000000	96.433	-23.4437
2270.000000	96.441	-24.8474
2300.000000	96.446	-26.2787
2330.000000	96.450	-27.7383
2360.000000	96.451	-29.2265
2400.000000	96.445	-31.2507
2430.000000	96.434	-32.7900
2470.000000	96.409	-34.8647
2500.000000	96.383	-36.4402
2540.000000	96.341	-38.5677
2580.000000	96.292	-40.7229
2620.000000	96.237	-42.9062
2650.000000	96.189	-44.5602
2690.000000	96.116	-46.7832
2720.000000	96.052	-48.4613
2760.000000	95.956	-50.7098
2800.000000	95.846	-52.9628
2850.000000	95.692	-55.7687
2900.000000	95.521	-58.5314
2950.000000	95.336	-61.2145
3000.000000	95.145	-63.7873
3040.000000	94.991	-65.7646
3070.000000	94.878	-67.2119
3110.000000	94.736	-69.1223
3150.000000	94.603	-71.0444
3200.000000	94.449	-73.5122
3250.000000	94.304	-76.0919
3300.000000	94.163	-78.8016
3350.000000	94.021	-81.6357
3400.000000	93.873	-84.5750
3450.000000	93.718	-87.6000
3500.000000	93.557	-90.7018
3550.000000	93.393	-93.8755
3600.000000	93.227	-97.1228
3650.000000	93.063	-100.4489
3700.000000	92.902	-103.8573
3750.000000	92.747	-107.3528
3820.000000	92.543	-112.4055
3870.000000	92.408	-116.1367
3950.000000	92.215	-122.3221
4000.000000	92.113	-126.3344
4060.000000	92.013	-131.3184
4120.000000	91.930	-136.5023
4180.000000	91.844	-141.7272
4250.000000	91.801	-147.3964
4310.000000	91.902	-152.4227
4370.000000	92.052	-158.0501
4440.000000	92.241	-164.9907
4500.000000	92.424	-171.1498
4550.000000	92.586	-176.4474
4620.000000	92.796	175.9108
4680.000000	92.935	169.2886
4750.000000	93.028	161.7834
4820.000000	93.062	154.8713
4870.000000	93.072	150.4246
4940.000000	93.105	144.8951
5000.000000	93.171	140.7061
5080.000000	93.329	135.7005
5150.000000	93.531	131.6862
5220.000000	93.783	127.8710
5300.000000	94.119	123.6234
5380.000000	94.489	119.3909
5450.000000	94.823	115.6464
5520.000000	95.157	111.8416
5600.000000	95.522	107.4180
5700.000000	95.934	101.8077
5800.000000	96.280	96.1865
5900.000000	96.549	90.6812
6000.000000	96.741	85.4327
6080.000000	96.845	81.5076
6150.000000	96.906	78.3134
6220.000000	96.946	75.3644
6300.000000	96.974	72.3060
6400.000000	96.998	68.9413
6500.000000	97.023	66.0419
6600.000000	97.062	63.5391
6700.000000	97.125	61.3514
6800.000000	97.217	59.3879
6900.000000	97.342	57.5613
7000.000000	97.502	55.7863
7100.000000	97.696	53.9761
7200.000000	97.918	52.0335
7300.000000	98.157	49.8795
7400.000000	98.399	47.4738
7500.000000	98.633	44.7985
7620.000000	98.890	41.2023
7750.000000	99.112	36.8098
7880.000000	99.243	31.9869
8000.000000	99.256	27.3044
8120.000000	99.148	22.6363
8250.000000	98.897	17.9056
8380.000000	98.531	13.7759
8500.000000	98.121	10.6417
8620.000000	97.671	8.2120
8750.000000	97.170	6.3577
8850.000000	96.794	5.4382
9000.000000	96.264	4.7813
9120.000000	95.885	4.7817
9250.000000	95.533	5.1949
9380.000000	95.248	5.9335
9500.000000	95.052	6.8114
9620.000000	94.922	7.7786
9750.000000	94.859	8.8049
9880.000000	94.874	9.6664
10000.000000	94.947	10.1706
10150.000000	95.090	10.2137
10300.000000	95.234	9.4924
10440.000000	95.315	8.2318
10600.000000	95.301	6.5081
10750.000000	95.195	5.1061
10900.000000	95.051	4.1995
11060.000000	94.926	3.7238
11200.000000	94.876	3.4731
11380.000000	94.894	2.9487
11500.000000	94.939	2.2789
11720.000000	95.021	0.1703
11800.000000	95.031	-0.8713
12060.000000	94.915	-4.9203
12200.000000	94.740	-7.2015
12410.000000	94.342	-10.2092
12500.000000	94.136	-11.2548
12650.000000	93.766	-12.6349
12800.000000	93.380	-13.5791
13150.000000	92.505	-14.3036
13200.000000	92.389	-14.2649
13400.000000	91.966	-13.8423
13600.000000	91.619	-13.1086
13800.000000	91.362	-12.2582
14000.000000	91.201	-11.5234
14300.000000	91.121	-11.1870
14500.000000	91.143	-11.8806
14750.000000	91.162	-14.1801
15000.000000	91.037	-18.0419
15250.000000	90.643	-22.7566
15500.000000	89.940	-27.0959
15750.000000	89.010	-30.0128
16000.000000	88.004	-31.2285
16250.000000	87.055	-31.1797
16500.000000	86.208	-30.5077
16750.000000	85.446	-29.6343
17000.000000	84.738	-28.6982
17250.000000	84.065	-27.7311
17500.000000	83.418	-26.7659
17750.000000	82.780	-25.7480
18000.000000	82.162	-24.5634
18250.000000	81.594	-23.3245
18500.000000	81.070	-22.2847
18750.000000	80.549	-21.3964
19000.000000	80.030	-20.3876
19250.000000	79.564	-19.1473
19500.000000	79.206	-17.7460
19750.000000	79.016	-16.3811
